Fp1,AF3,F3,F7,FC5,FC1,C3,T7,CP5,CP1,P3,P7,PO3,O1,Oz,Pz,Fp2,AF4,Fz,F4,F8,FC6,FC2,Cz,C4,T8,CP6,CP2,P4,P8,PO4,O2
0.057813093,-1.335265708,4.640479834,0.21957263,7.473817197,2.314841544,1.918096675,-9.257533341,9.089943478,-7.104518775,2.414574162,7.827253336,-3.781129703,4.732689026,-5.738116843,-7.654468958,2.332482692,3.561578738,2.406168609,8.67108511,1.046758895,-3.716191836,-30.57954227,-2.241480334,1.415335067,2.406645742,12.86405942,4.02109921,-2.828598465,-2.588735036,2.637905227,-5.226618413
1.367407744,10.25965434,3.345408537,7.897852219,-2.446051236,-1.655034777,-6.301423102,-7.290316574,-3.546453167,-5.705186844,3.636300217,-1.282584819,3.825046404,5.962937662,2.410637397,-2.719755928,1.339452632,6.263791973,-0.270993344,3.272304674,2.150266601,3.397740659,-1.2905158,-2.568397286,-5.651418419,-0.096730002,-4.930759112,-1.722503712,-6.111309137,0.094892926,-3.521353228,1.8870925
-1.783131929,4.133553453,-0.951680496,-1.624802705,-1.827309082,-2.280364391,-2.279224656,9.151344472,-0.239574974,-0.057604018,1.769168071,3.66213127,3.538549612,-2.723943302,-3.57280331,-0.285842812,-2.208535384,1.639804674,-0.395367126,0.245064928,0.364179235,5.892245338,11.42492345,-2.13282333,-0.521116937,8.605298002,-4.499946322,-3.232838752,-4.249644869,-3.68716718,-7.383003739,-4.48953719
-3.690217302,-0.814000136,2.295469337,0.901445479,8.323678851,1.127905683,6.356886101,11.6420819,9.354153756,-1.662477966,2.290675216,5.210836344,-5.103227177,-1.494224231,-6.150061069,-5.58458207,-3.863720951,0.208417334,-1.82834686,3.403780383,-2.148347335,-1.67203298,-14.72141088,-0.506117025,-1.154865506,-3.940250841,7.390880926,2.129897385,-0.794675114,-1.95902127,2.774530024,-6.323059997
2.137114297,6.420466365,6.122229702,10.01532078,3.106394232,3.183129267,3.658534641,4.571792675,4.917712319,-2.325940402,0.34627801,-3.960279264,-5.355266147,5.52965355,1.708645486,-4.302073315,0.396391508,2.753233117,0.729057589,4.59396641,-4.159437209,-8.237151256,-13.81508964,1.813906538,-6.444635185,-27.68087963,0.641364232,1.996658247,-0.445779444,2.614021384,6.161844669,3.308816473
3.006503467,-0.47226909,-0.688213252,-5.780935774,-7.192504994,2.181608941,0.865382997,-9.880725179,3.612375983,5.287214422,-3.985747465,3.38962448,0.622276689,-0.220296885,0.250869906,3.623647439,2.279004941,-1.56067838,4.840037331,2.170833854,-5.198745686,-6.174014828,7.780327257,3.704729108,4.807875947,-14.09935697,-0.398184041,0.968172644,2.847542802,-0.430289734,0.504931976,3.339002092
-2.809823433,-11.44034697,-4.914160006,-12.66326841,0.261806655,0.205864375,3.560403143,-14.66102072,9.591354552,3.608719127,-3.246545183,10.00727685,-2.9762522,-7.139298105,-4.563689036,1.742072773,-0.677565534,-4.125957835,-1.031015459,2.156886028,-5.372856436,-3.312891064,-9.725542226,0.994289847,11.47361513,10.93511384,15.19392434,6.024947374,6.900804972,-1.937050171,7.355115261,0.585088514
-1.858828645,-6.561539916,-1.50235025,-0.684740346,4.311029641,-2.198763428,0.34741914,-3.662025521,3.212800896,-3.526966687,-0.914418412,-1.518351808,-5.432844834,-2.010306727,2.309429719,-1.432527343,-0.567986622,-1.236180371,-6.357678196,1.039832516,-5.029129543,-3.923101181,-22.46867433,-3.071258822,2.917499553,9.906184966,13.91677545,6.580599993,6.766618808,0.13856262,14.74337872,7.767540965
2.375042063,-2.43532419,-3.560730772,-2.490795595,-6.430608247,-5.527053805,-5.815668034,-6.952460389,-8.662935869,0.375793768,-0.550512415,-3.675329368,3.620429966,1.459872338,9.232212873,5.372431296,2.060922172,-1.26176055,-2.13177928,-3.254954359,0.144151517,-0.742696804,6.534450376,-1.057362151,1.95094969,-4.154912759,-0.964971568,1.387964271,6.880012176,2.526859926,5.950608231,9.798155492
-0.863463775,-7.314437237,-8.969851638,-6.965791458,-6.652614177,-8.085985168,-5.035622457,-15.79888435,-5.848907479,2.314192006,1.392230405,2.719215979,6.73823091,-0.164813378,6.087264484,6.227817905,0.450255808,-3.210164637,-1.775276458,-3.529175663,5.609033273,3.513170307,9.122028255,1.306096712,6.041663124,0.540753047,2.653400729,2.418992888,7.746769533,5.704825522,1.287617711,2.341429277
-5.527113696,-15.15324122,-10.96400012,-12.48901762,-0.601660289,-6.991813972,0.900909052,-9.975048389,6.703950673,0.865344033,2.822932171,5.097181041,4.105875668,6.219834453,1.3321531,1.060886226,-3.430069478,-9.061342831,-3.731325333,-1.673116879,0.997479508,-1.99394736,-18.08834639,-0.836739095,8.598589564,20.9418441,16.59614576,7.397375619,8.09677526,1.442360253,7.99424959,-0.657103402
-1.971356679,-15.72865583,-8.793897529,-19.6693941,-3.052369897,-1.369504185,5.707803307,0.110920544,9.753625304,6.725699704,3.036975033,8.693543959,5.65484175,8.580986227,-0.962458711,2.208654108,-2.055988102,-11.49476072,0.511094585,-1.55223333,-2.426515454,-6.753016135,-13.90177742,-0.497841014,9.376265863,10.08975383,11.18061563,5.264165398,5.228679819,-8.313416188,5.69731388,0.722246358
3.894317274,-1.938374356,1.02835522,-1.297155001,2.910181414,6.430109077,8.168545095,14.27045716,3.664191008,4.644337595,5.306327937,-1.970020374,-1.688093486,-0.969606324,-3.822761052,-0.624073699,3.042439569,0.4808594,1.252612718,2.872940492,3.06549052,-3.092950916,-11.65878227,2.435316105,-1.042302208,-17.65287155,-2.26409627,2.301722817,-3.013419629,-14.78967495,1.058497353,-1.002518672
2.907696663,4.992704557,8.645201705,12.16523693,10.86342438,9.791559367,9.403067101,14.30443845,3.997217916,-3.573836227,7.045398298,-12.83525222,-8.980993143,0.423850931,-3.747955146,-5.454169886,3.418199781,6.60153402,-1.344568294,7.3092441,1.670972117,-5.771266866,-32.31091783,2.287692106,-7.938490678,-9.651783909,0.686019147,5.677974296,-5.635985913,-18.49469908,7.183203248,-3.634715918
1.058025054,0.580035368,4.298477689,-0.744167618,0.214436422,4.721109295,5.066073103,-7.613942741,5.970280224,-0.717516325,5.833041679,6.989108743,0.450956179,4.224517368,-0.954095087,-0.352610223,1.323158434,0.506935768,0.72147133,3.148536118,-2.986809912,-6.131635533,-14.96100732,-0.234584966,-1.523878431,1.711913799,2.23111486,2.864079404,-1.653973368,-13.94981534,4.351189792,-4.440423765
3.278571903,3.435110697,-0.001942188,0.747583621,-4.609747737,-0.952882724,-1.571349662,-7.412841215,2.686152756,-0.146585848,2.971131879,18.11200169,2.946715832,-6.221153178,-2.016983053,0.767599647,3.086617376,1.28361016,1.074878318,-0.765968287,0.415296222,3.446054824,7.590660212,-3.497371003,-0.213194929,-7.451104146,-2.081583663,-3.216545856,-1.553695548,-4.507447053,-3.025891001,-2.595698044
2.228139128,0.430295352,1.409125646,5.303831696,9.6908882,-0.488919986,1.227718502,10.6411309,5.167583053,-5.371274387,0.584339218,-0.869966996,-5.210731196,-1.121902938,-1.070280563,-4.689523126,3.201918662,-0.131147974,-1.811933834,-0.264427172,-1.590955583,-3.13312909,-20.54669998,-5.239976776,-2.420662709,-9.655780668,7.52032481,2.447176137,0.538034786,-0.229486617,9.23437274,4.221920763
-0.469449752,-5.595302583,2.415082793,-1.509815281,10.57633246,0.513850741,2.878073142,6.555135719,2.398076584,-2.202436984,-0.301693721,-8.830832039,-0.690999762,13.12067485,5.24546723,-2.669749559,-0.292889355,-4.650414869,-1.435812816,-3.297263824,-6.261869671,-11.00387044,-20.20261467,-1.862071055,-2.484346097,-13.98834151,5.873386383,3.364971928,2.949590125,10.30718142,12.85711562,8.694834979
-0.481716506,2.695318851,1.485807817,3.325244363,-7.229542368,-0.372938029,-6.975381278,-9.534643573,-12.12524816,0.807913394,-2.870721801,-3.780972532,4.086908671,1.03014014,4.104994347,0.12882943,-1.24881922,1.809676488,1.185903524,-5.70869403,-0.816883195,5.734824853,26.35045971,3.62215457,-2.719458473,-4.427455308,-10.1841159,-5.84789518,-1.147060237,21.67679667,-6.429873196,3.856446157
-3.766307501,-1.507317306,-3.357744674,-3.548156452,-13.47332816,-0.317219018,-8.103547292,-18.06954334,-8.615075916,0.232962127,-4.595787249,0.762082915,1.838084886,-7.23373989,-0.576751595,0.60993459,-2.30952889,0.009556799,1.926097083,-4.157216993,0.879086355,8.135278136,25.69370888,4.277508145,4.285810506,25.08986343,-2.176494977,-2.207581034,1.558676499,13.2001538,-6.700544841,2.217080975
-4.891851284,-10.49278819,-5.619744723,-11.70593969,-3.61029734,-2.390152539,-0.129344886,-6.858936249,1.870916568,2.305761539,-1.062457523,4.362338478,6.687758801,3.899474692,3.99620177,4.665715934,-3.878936925,-7.218727606,-1.642143501,-6.139345119,-0.422029808,-5.458471543,5.163932534,-0.389790918,3.313404245,11.81683003,1.59164453,1.168658787,5.06899496,5.215462922,3.588725349,7.19513671
1.002922826,6.5640736,-0.126543205,10.27609306,0.877857474,-5.051270325,-3.824361729,10.13289423,-10.08134096,-0.29827741,-1.063982664,-7.942482745,6.541436275,-0.194649159,5.026319996,4.166657785,-0.452214634,3.209826405,-4.630316302,-7.648842053,7.090156048,7.795443154,24.35898201,-3.524516949,-8.433378002,-10.71794999,-15.76847249,-9.358625243,-2.905376856,11.6147811,-8.677756026,2.042912775
0.09831166,11.85156952,0.32313523,9.454736936,-4.233816362,-2.334189632,-6.560358128,-0.432887917,-10.83708891,-2.231275938,-4.781202694,-10.53130221,-0.202790764,-6.197156316,-3.010346641,0.708254726,0.728536963,5.878831809,-0.829652508,-3.577673983,5.972329863,17.76327552,27.40708873,-2.26487703,-1.766044258,14.45560941,-7.574349699,-9.121314028,-2.974244218,7.216105461,-14.80738893,-7.589825654
-4.62503212,0.667867067,-1.528145923,-8.689584639,-2.476047047,0.93134729,1.055851251,0.247877685,6.110094101,2.131603255,-1.344796936,10.31504875,2.515611405,1.193113395,-3.556160606,1.457404324,-3.803497963,-4.111832284,1.748173879,-1.77718591,-3.984339732,3.565850421,10.37038153,-2.078917103,3.598929799,13.3030172,-0.304284007,-4.802852571,0.744981827,-3.790612713,-7.321205078,-5.762658551
0.55692431,13.64381335,5.485281148,11.50227507,4.92653368,0.244547142,0.36510081,28.42411146,-2.486794762,0.756265779,0.721706437,3.95935986,3.051607363,-2.337850291,1.322546866,-0.276852771,-3.209188007,3.513149606,-0.31915155,-2.770694054,-1.110763029,5.893766172,24.98009839,-3.204110258,-11.88795052,-14.93003724,-24.70806146,-13.641648,-9.602018086,-0.339567929,-14.85214015,-3.670259321
3.858956466,17.93014843,6.646313767,17.65470738,1.221950726,0.081569821,-4.577824762,18.96460637,-15.53761396,-0.360473919,-4.333916167,-12.64286944,-1.109428912,-7.090771519,0.250992581,-0.484281515,0.162375746,9.027125415,2.041933701,-1.740706134,3.833715958,12.3703697,36.97751375,-0.723610735,-10.36203993,1.297818905,-24.86036095,-13.06470546,-11.90293661,2.899799003,-19.70511416,-6.72324354
-1.289656417,-2.568861861,-0.024091297,-6.168179658,-5.700566676,0.861450489,-2.203486419,-2.293441941,-4.128337535,5.195256212,-4.496121767,2.11517622,1.889534837,-2.964715169,-2.326833897,5.29561798,-1.942711763,-1.759502109,5.175538573,-0.668811774,-0.168218615,-0.391652583,22.20572677,3.065452977,4.259212811,13.01527692,-2.934501773,-2.432254481,-1.871111759,-3.031057628,-9.571618011,-4.142510658
-2.337292455,-3.618898585,0.982288904,-3.871359082,-3.76082778,1.055706674,-1.930125706,7.396741994,-0.472933246,5.263619473,-3.012921998,3.329298323,0.611597665,-6.090004541,-3.034231102,6.462800455,-3.205756562,-2.967416712,4.147461251,0.583699159,-1.526324541,-3.43061828,15.87045109,6.319910898,3.831388308,-2.480430263,-1.930664134,0.299425151,-0.706171245,-2.858302432,-6.725514951,-2.194595729
-0.228198686,3.774248498,2.23362446,-0.023450379,-3.121468678,2.873311558,-1.877807388,-2.855068488,-6.059862514,5.097281527,-4.331008706,-9.771269234,-3.638130235,-5.481962308,-2.849953173,5.171311207,-1.708776538,-1.019253108,5.132637703,1.545627764,-2.944849679,-0.269060064,14.31005952,9.599755311,4.646414326,2.33935448,-1.988587542,3.844324484,-0.648610929,0.635789941,-7.003630382,-5.382792746
0.74603485,3.035252791,1.329080739,-1.886207868,-1.676342771,4.614729961,2.379864429,-12.3317718,-0.843269307,6.226038201,0.208352637,-1.069422469,-1.157270795,-0.278944028,-1.988326194,3.728329651,-1.70584872,-2.185205418,4.148348782,1.542296774,-4.799956744,-5.080006151,1.642183183,7.26763028,2.84428775,4.180565377,-0.462105447,4.929669039,-0.608712266,-3.376529946,-4.078132721,-5.294611794
3.385579709,13.14931799,6.492042062,18.83109169,7.359597246,3.641381941,1.592362022,9.5477226,-0.969416009,-4.312669858,3.055624082,-5.564854852,-5.077402855,-5.219039831,-3.317419643,-5.272852067,0.485763873,8.490747917,-1.565377165,5.31525852,2.260550746,3.128495699,-9.522582678,0.102529943,-9.017062282,-0.471317736,-6.577321577,-2.657510413,-8.638143405,-6.358755216,-6.220909286,-6.075431162
3.109046034,12.95693524,5.401128287,16.42462109,8.469487139,2.098661909,0.577354378,1.795191985,-2.582946304,-9.840943599,-0.623044669,-15.3962929,-8.480289933,-3.22768226,-3.612468415,-9.479104153,3.125702259,11.81702996,-1.766557702,7.749070775,6.548777667,11.87019677,-14.68659565,-2.845772762,-4.862319012,10.43038277,0.863720388,-1.862204104,-7.799246659,-5.233309344,-2.916013098,-8.022516091
1.479746961,-2.673819552,-2.161462839,-6.652455729,0.163747908,0.498258249,3.824891437,-16.18687979,5.97531156,-0.421344966,1.508992677,5.675897138,0.610552755,4.237536132,-0.016331784,-2.950626632,1.452229982,0.24619105,1.495005137,2.334017968,3.299141587,2.496639955,-12.44229381,-2.173811965,3.596375576,3.088612103,5.160510761,2.546821111,-0.190757689,-7.847143107,5.280865486,-1.25441767
4.408375834,0.18642312,-1.812167557,1.540834905,-4.079218683,-3.209110922,-1.186197663,-1.950311062,3.051260891,-0.720087646,2.91279409,12.37235697,2.051404027,-1.324740752,1.95299133,-3.004455173,1.691697964,0.540940415,-0.406196988,-0.667944035,7.387728447,-0.167367262,-1.651734314,-3.616457451,-3.73463508,-5.791931224,-5.623452326,-2.990325053,-2.096085695,-4.243987356,3.872490151,6.307108098
4.689256783,6.754960116,-1.645880691,6.801204999,-7.293626323,-6.804328919,-10.18718399,1.748008477,-7.305131627,-8.547705544,-4.548349123,-3.447646019,-3.424440379,-2.474983776,3.208213157,-6.177419131,4.977655875,5.75775881,-2.614667878,1.300477907,12.40662879,5.776470699,6.579058782,-6.629940194,-5.004161849,8.189295907,-2.745917609,-5.835572796,-1.521371538,10.0718292,1.93416718,6.013340698
1.316099364,-2.285468804,-4.454806947,-6.888117521,-7.715708879,-5.685925323,-8.848867116,1.845974778,-4.443274222,-4.714263023,-6.56818357,-1.773103745,1.278567803,4.0421444,5.512869741,-0.797209256,4.13634198,-0.340365739,-1.065030484,-1.240576609,6.471423174,0.730656073,8.786161881,-6.741191698,1.517720979,-2.179253976,4.41081471,-2.030746821,4.782160914,12.92841741,4.817387845,5.195352677
0.40587616,-8.41148013,-1.796674699,-6.011371417,-1.251033782,-1.64275215,-2.951738093,7.265689464,-0.870071491,1.244308976,-1.629836071,-0.480205349,4.444416732,1.80358771,3.737888125,3.301168641,0.308641967,-5.705816128,0.669131844,-4.150840994,-0.923998853,-5.460891708,7.030644949,-0.993628929,4.22396614,-15.20665322,2.786780553,1.485596272,6.13867598,2.647437626,4.451061159,5.542120719
-3.417800105,-13.25071064,-3.548854351,-10.49940657,-0.69799272,-0.242419886,0.666480484,-13.36824341,0.814780108,2.349488868,0.583692421,-2.851236206,1.802424323,2.077412634,1.344217722,2.769079902,-2.607288611,-7.897376725,0.64547127,-1.525360485,-5.665543191,-5.55657868,-3.849349237,4.760291759,9.861384031,7.099502239,10.79867531,7.506339245,8.853785853,-0.765546615,7.845553194,5.965128068
-8.24076694,-17.40667572,-9.466932393,-21.25848456,-3.802858488,-1.043018038,4.460554375,-10.60066706,8.93078738,4.011145678,2.777700517,6.082018076,2.140273611,6.321414463,1.87798785,2.323435823,-3.936300942,-8.882975998,-1.174318952,0.4233896,-9.346171291,-6.506611971,-15.98934325,3.666466501,9.624968765,6.156858485,16.02897862,10.47967601,11.01104943,1.022636137,13.30725354,7.008530735
-4.886440315,-6.593436458,-5.401466663,-7.115680091,2.135347956,-1.724151614,5.456947811,25.80599859,8.730575816,3.331633765,4.382889551,3.544548399,0.345815511,2.07743538,-0.501518405,-0.819934572,-2.808931431,-4.074806195,-3.623625955,-2.015327873,-6.212122869,-5.48904878,-12.01099714,0.129361895,-0.016796666,-16.84455715,5.779094743,3.983826933,3.95467889,2.906021581,5.2020115,2.372653861
-0.816407538,3.624652156,0.882234865,8.971062603,7.138528273,-2.646019067,2.76625233,19.59928689,1.384096752,0.745015336,3.646304925,0.005619476,-1.31192762,0.700120895,-2.200016052,-3.459312473,-1.460222047,-1.081223893,-5.51022773,-3.868267336,-0.992690899,-2.467899087,-3.875440689,-2.034143292,-4.082373865,-8.71057463,0.058099175,-1.810564573,-1.774893144,6.172623262,-4.745661828,-2.846031171
-1.105791496,3.338222638,0.967398514,10.5385505,3.203950795,-1.834980846,0.28279399,-6.954305049,-0.486062346,-1.223751446,4.571551076,7.094536315,1.354675364,6.349529801,2.898496128,-2.162241793,-0.392313221,0.790466675,-6.019647383,-0.410698179,-0.217849416,0.561850754,-8.5599753,-3.701115114,-6.719374749,-2.741335424,-0.971517402,-1.259650826,-1.244017997,3.992790032,-1.14967817,1.209493581
1.111218041,5.18667481,1.74522663,11.02216848,0.004616784,0.112366808,-1.48870546,-2.687226186,-4.437275605,-2.455681897,3.076639733,-1.736593166,1.793229727,5.188716124,5.526361497,0.069542857,1.258115925,5.363275895,-3.842094212,0.778430464,0.169673646,5.445607088,-5.318166521,-2.466586964,-9.323541906,-7.511590663,-6.034632953,-0.830205635,-2.014711256,-0.201803478,-0.268025582,2.764976975
1.241557123,-0.259976043,2.33991464,2.027352836,3.877633715,-0.121861338,1.774617797,3.985802295,-0.934639182,0.829980832,0.940972286,-3.061235234,1.85349758,-1.152068572,-0.411377149,3.087228721,-1.335020624,-1.102449858,-2.154313229,-5.602227186,-3.397294881,2.14598485,-2.182862619,-0.347955034,-0.987527408,11.83268167,-1.560917984,1.12306456,-1.065610068,-5.000408124,-2.51462064,-3.867923729
-3.733645129,-12.98691836,0.386957682,-7.767237755,10.08502536,0.413109111,9.076155071,3.159986222,16.21204095,3.101214109,6.787517835,16.24051618,1.751288651,-0.762695159,-5.065265459,3.47722989,-4.404766338,-9.805687661,-3.515139011,-3.811401002,-9.211440063,-9.745200013,-31.05130464,-0.401753454,5.857833786,11.11775492,11.45350567,9.028561772,3.245565628,-14.09856443,9.871145089,-4.904389463
-3.350516308,-9.585143945,-1.461493556,-2.758356561,6.443136511,2.247273545,7.13615103,0.516681788,15.0526781,0.158100453,9.809214714,10.45709349,-0.532831952,5.690277791,-2.110665678,1.445120142,0.660610643,-1.426390946,-2.125956622,6.799558539,-4.088167979,-8.537837816,-38.29787186,1.104685041,2.02272209,-22.62139056,10.22677591,11.27746188,2.600153832,-10.25205886,15.02251118,-1.521524045
0.050468141,-1.953385144,-4.113891852,-5.008174434,-4.581117863,2.247498979,0.945681112,-12.86046406,0.103898273,1.990104803,1.90409594,-3.555404639,0.901839379,5.331316204,0.451196339,3.504881115,4.480676526,4.070315505,3.543916564,6.459690368,1.876690822,2.150231107,1.27994084,3.298961378,3.885982708,-17.67479874,0.087917261,3.83981016,-0.747113027,-0.697456398,0.602647854,-1.815955229
-1.61910843,-7.801676455,-3.71252166,-15.48213525,-4.726921084,4.275003966,4.930809356,-20.24042912,3.872973233,4.228795672,-3.691780969,5.109264394,-1.40122537,-2.34859714,-2.728574612,2.312548986,1.211090902,-2.614267326,6.315832976,4.55479473,-2.854666243,0.291048776,1.925335352,3.432799342,11.1639402,15.29136146,5.893793764,3.168713042,1.028244274,-10.26909766,1.080899296,-0.59624841
-0.608626815,-6.265539248,2.301487012,-10.1233282,0.922939768,7.33536189,6.349224907,-14.92945771,4.894778511,-2.508453682,-4.943941345,-0.767830815,-10.01039209,-3.045204276,-3.95395488,-4.779606286,2.456492134,0.44081979,5.454616713,11.45329549,-1.668724522,-3.826416854,-22.87960258,3.430043398,7.640382359,14.37852984,12.88198459,5.884169991,2.709644197,-12.93565134,11.99556445,2.717395601
4.996065742,3.329501294,6.420531702,-1.294382793,-0.019672782,5.761118268,-1.278378563,-11.42777441,-7.491497867,-5.970222213,-8.215027333,-14.683823,-8.004281651,-0.476959191,-0.635379916,-3.945509847,6.223922877,5.3343042,6.199608095,8.616145855,4.242108667,-2.009405913,-4.253356997,1.825803052,0.487652506,-2.347185191,2.944519546,-0.306429224,1.770167125,1.796607415,7.370976815,5.040253735
6.050111057,0.949217583,6.865681252,-2.455169876,1.734632652,4.005868411,-1.548070905,-11.98062942,-3.615124619,-2.270163903,-6.858061985,-3.984105622,-0.623509026,-3.730594798,-0.186937252,1.056543513,4.145157128,0.471694327,7.476723955,0.286551539,-0.749628104,-9.23200471,2.476649573,0.175598591,1.340310938,-10.28663797,0.54748455,-1.789755817,4.596288042,3.101643536,6.714994542,7.315242829
3.584562393,-1.431663466,5.235176741,-1.419282087,3.330471447,2.787334814,1.047003503,-13.90070358,2.951812055,-0.72710376,-1.035784951,1.125372547,-0.262763906,-3.046647511,-1.09687478,0.796138559,2.930975652,2.02158621,4.659072084,0.518870671,-3.93122844,-13.65227062,-11.11539121,2.20899778,1.248843809,-16.84572508,6.085512129,2.34455499,6.20387792,3.312551836,9.869737907,6.20298634
0.201769317,-0.310681236,-0.55813592,-2.279673385,-1.245802044,-1.635427018,-0.89442979,-9.856829769,-0.644978514,1.742262035,1.731492468,-5.672502321,1.557523777,0.652254439,0.398727265,2.142630751,2.25229847,2.509803901,-1.003809188,-2.153212062,-0.997184502,-4.931936001,-1.165284138,1.834761185,0.264787647,-5.153797034,2.938304063,1.199801931,4.011674131,8.762845288,2.736971292,3.565774962
-3.382743617,-6.579578299,-3.404445667,-6.640340407,1.284509796,-2.833379472,2.451016091,-1.590873427,7.057037292,3.908911716,2.952518787,0.145771361,2.211851631,-1.09156993,-0.809706757,1.97587348,-2.655118156,-6.995904632,-3.86032118,-4.972218707,-3.146687017,-3.815879316,-12.97300482,-2.038742453,5.643962029,17.18227045,8.379663252,3.535823253,5.605450404,-2.068194352,4.597930928,1.92611774
0.473180419,-1.177498869,1.35098201,0.46981849,4.399638441,-0.231584491,2.408679688,-0.65266864,6.978539927,0.625736195,1.085469536,-0.076690502,-1.457585817,-2.009977387,-3.745711198,-2.975456154,-2.796043166,-4.832888773,-1.528385846,-0.421129773,0.470384183,-3.959667835,-16.68668822,-1.803778611,4.761866329,13.53976773,10.37716957,1.303393942,3.021025306,-2.253976519,1.166323529,-5.82224349
6.514985684,10.6880489,3.42459242,3.894075554,-0.201736566,0.577741521,-2.85091301,1.872720416,-6.643902448,0.348827939,-3.73758329,-5.779969298,0.196683889,-3.482271876,-5.024864509,-1.937930147,1.63533802,1.740145098,2.785706761,-0.640577786,7.047470151,4.233465274,24.66475247,0.492948453,-1.571469175,-0.930878429,-4.34005756,-9.611328496,-5.206739674,11.11702926,-16.69183582,-12.58247373
2.04486823,1.515564836,0.567990621,-6.142278512,3.391651223,1.641057252,3.084083775,9.418647892,2.110317579,1.546262268,-1.475258797,5.867684365,-0.487953435,-5.745053577,-6.204315276,-0.557734757,0.50935619,-4.238368605,2.693483572,-1.971740197,-0.443189107,-0.358336836,10.40338763,0.060986028,0.670144513,1.75438839,0.662232999,-3.698507131,-3.120755396,0.285931712,-7.338966058,-6.445581388
-3.693729645,-1.92554586,0.491320172,2.521167514,6.771785411,-0.073445097,4.917329215,9.882846728,11.59745292,-5.264553528,6.26622992,11.28784106,-5.588060235,4.533354899,0.121434153,-6.460726117,-2.123951523,-1.125173678,-4.337247975,1.121345855,-5.649529456,-6.030616312,-35.10005159,-1.88243476,-4.873978404,3.352057465,8.916954014,5.983672095,-0.084366057,-8.39141255,11.8904455,2.949585861
-3.02132219,11.71837272,1.636735332,22.39186235,1.383645344,-4.479665462,-3.331510687,7.73443052,3.199833764,-11.20350217,11.20979111,2.113013785,-3.402632048,17.22426628,12.54994229,-8.800196303,-1.932366482,9.74259838,-10.43830676,1.004853584,-0.54154398,0.851636394,-28.55405596,-3.906641612,-19.34190257,-14.78584205,-5.361921533,1.439200814,-4.930788773,1.459623624,9.702700472,8.669691818
-4.719805912,6.399715461,1.083703682,16.16398518,7.533631192,-2.006519568,2.715819931,12.08846769,10.15149034,-8.181826266,12.03304894,3.271111524,-2.765916852,11.56585755,10.17764505,-7.201883925,-2.793870645,5.636842055,-7.89037238,3.720828158,-1.130517298,-2.133978356,-33.64297843,-3.276810022,-13.561085,-34.02421438,0.361498916,6.291502971,-2.488324885,-3.27197746,12.08724263,7.807690096
-3.621747562,-1.436055987,0.960412483,4.075939012,9.847460875,1.016843765,6.297047165,22.01898417,9.006779768,-0.736341173,2.903550783,2.558703677,-2.697616885,-2.655620471,-3.348709944,-3.652205748,-2.411354766,0.179738178,-0.286258274,3.59937708,0.847152182,0.350676685,-11.98418443,-0.52777583,0.003340368,-20.3097438,4.342445014,4.512492975,-3.197826254,-5.826875496,-2.682974632,-7.145652938
5.175663322,9.68876742,0.551746955,5.063730384,-8.852746597,-1.592768984,-7.719658432,19.85848442,-18.19253918,6.93372119,-10.90367657,-6.760305583,9.062706177,-7.963384347,-4.131067184,6.721628372,0.234094401,0.414968739,6.125812678,-8.501905597,8.403611571,18.78821735,74.78825464,0.368702042,-0.92094939,16.39291925,-28.20889646,-18.16367429,-14.42409938,4.019863027,-39.32147718,-16.93574278
6.348250884,10.05261895,0.051499158,2.629538134,-14.37515306,-0.516438859,-10.38681363,-0.867956796,-21.49592151,6.582967604,-11.72768352,-3.959795299,11.50481917,-6.040528875,2.099827525,9.295599173,0.858040867,-1.853713297,6.901885301,-9.365271114,7.619151838,17.86658434,76.11333115,0.717144374,-1.952480199,25.76772059,-33.05721309,-18.25738237,-12.14807171,0.699772542,-32.11022019,-6.994108085
-0.491171676,7.807094854,0.241793935,9.341692412,-5.914487702,-0.359220664,-9.1764433,3.078916789,-14.51248021,-2.430668808,-7.838909746,-5.153182613,-2.926742709,-7.218437534,1.25260757,-0.444533675,0.215947172,5.710467438,0.8943953,0.127393769,9.328349038,15.07252008,27.35247765,1.056824331,-3.929445368,14.17788626,-14.3431487,-6.346268595,-5.687315518,5.415874438,-11.52015557,-2.781628659
-0.738803159,17.96068526,-1.746129254,21.60456364,-12.34981276,-5.456341982,-20.60240173,31.2129841,-31.35391143,-3.619002375,-13.44736475,-19.54371664,-5.789202705,-13.98442496,0.95786115,0.357249675,-0.899503764,13.13838468,-1.926521091,-5.380762662,14.76561662,30.39116746,65.76973531,1.029517952,-9.669689566,19.96994179,-28.88348088,-16.75375521,-11.05075453,21.47106691,-28.12750262,-7.305692477
1.895876278,10.75221376,-4.898685036,7.40498083,-17.8006372,-5.263104722,-18.85046832,19.9382789,-33.23441313,4.74177056,-16.09974763,-17.00476474,3.889307683,-15.05752718,3.379372613,9.653790883,-3.258243124,1.31498019,2.812862961,-11.49802023,7.360921022,23.03147171,88.04602682,2.420641332,-1.863251302,24.59176966,-32.61235894,-18.02032039,-6.117623562,17.48467433,-27.34050862,0.200734577
-0.50865528,-1.957838889,-6.048984378,-8.272552203,-15.72743791,-5.786476578,-9.954959742,-12.15671171,-19.77238859,6.599455034,-9.677969414,-4.008106975,9.582123453,-4.928076618,4.341796582,9.155938455,-4.329662048,-5.912456108,2.486770971,-7.200766681,1.035708846,7.781942823,55.27502297,0.246791631,6.169563383,18.76757815,-12.69566098,-8.152595612,3.908984634,13.2183078,-9.022439442,7.543754426
-4.054659766,5.169864964,-6.358871654,-0.265751365,-19.95352055,-11.48915483,-13.2288029,-9.802602238,-19.09227975,2.100287008,-2.551420643,-1.896986508,13.19870221,3.101316541,6.731130358,5.310484048,-5.200434318,0.876972952,-4.058059601,-7.908572239,5.193818313,18.61181872,52.7743155,-5.288666014,-0.380717859,24.31833448,-15.63287811,-13.01121929,-1.542947122,15.48495858,-15.05288707,3.89842814
-5.20718094,6.955801134,-5.427543367,2.754774363,-13.47362506,-7.964273376,-8.062368548,11.14158468,-9.598495134,2.847693669,3.701432774,1.993708046,13.87332204,0.007917528,4.372662215,4.861150929,-7.633665488,-0.246998707,-4.538440297,-9.156113633,3.281590819,17.91432167,39.8938035,-4.570857137,-3.698132547,23.30349674,-20.34504517,-12.76640644,-6.679291436,0.898307102,-17.58330539,-0.849824547
-2.289193599,1.091193809,-2.091248434,-1.014041892,2.019984047,0.534569401,2.74295248,26.36250402,3.453297225,8.300094484,6.441778089,5.602544735,11.47252071,-4.10623853,-3.529035271,4.464396633,-6.494957889,-4.382411785,-0.840665721,-7.50826822,-1.843437725,0.708274901,16.89802154,-1.324554688,-2.810654156,2.206139501,-14.50700909,-6.609086942,-5.289892499,-7.740699198,-14.32615545,-5.590720493
2.511407123,3.546602392,0.71222219,1.542179258,2.627334653,2.293632722,2.396762,11.83228818,2.481619887,10.52921762,6.196783593,2.69935801,11.35900461,0.968827637,-1.969197052,6.152736517,-1.402362426,-2.434777056,0.329059135,-8.410983078,-2.283248818,-3.372557196,20.82423148,-1.544937398,-3.561598978,-19.61923109,-14.42921119,-6.707973736,-4.051094116,-1.545468264,-14.18969862,-3.480927977
1.523236602,-0.602506386,0.640909822,-3.681349766,-0.495384623,2.997767867,4.650822988,-28.77549017,7.566944695,7.618182129,7.043906398,5.846598793,5.726836282,5.413795231,3.146168026,6.153819276,0.084429188,-2.985524577,0.470419344,-3.624205879,-4.070706723,-6.954164421,-2.22022294,0.737022587,2.709823576,-24.76972126,0.250219691,2.56329036,3.475161834,-2.742338417,6.082034515,6.22022596
-4.228204436,-9.770510005,-1.816905351,-12.02295792,1.193301796,3.171564091,7.554363164,-29.20431948,10.73310545,4.352198551,4.043484412,4.689518692,-6.148527936,-1.399913134,-2.08375957,1.858969084,-2.427963681,-3.394197679,-1.056559456,2.204414893,-4.592087013,-8.944359619,-26.03910731,4.087515246,7.68198989,-1.360792507,18.01864405,11.11961494,9.39114425,-1.016600531,19.50548759,5.901449528
-6.61964093,-11.62235546,-3.664606408,-13.17165388,-1.461433216,1.807996015,4.217617746,-5.546589979,4.601722219,3.779653847,1.951867975,-0.743128832,-8.477201758,-4.100480828,-3.60396742,1.940172594,-3.383890013,-2.973599969,-3.062304747,1.125911986,-5.191255633,-4.07206222,-18.16201995,4.909616667,5.561669225,11.74724984,15.32911241,10.16895538,8.468611941,3.51425609,14.07963541,2.652141896
-4.976897353,-15.46268123,-2.380236076,-16.25162767,1.943345288,3.72393724,9.13246088,-16.14963835,13.87257912,3.270921693,7.364546003,11.20252205,-1.761806706,6.006313275,2.820235183,4.011050508,-2.880493209,-7.91899775,-1.387202183,2.887247349,-13.26041984,-15.20974237,-37.97080356,6.159009022,7.644185533,-20.17824246,18.4856588,16.44267901,12.17404515,-2.530764384,23.85271495,7.32610208
-2.137113287,-19.91307122,-0.458008585,-17.42006537,14.18679317,4.840368565,16.67455772,-14.46039451,25.88119331,-0.590621078,7.400504115,18.21382721,-3.00289194,9.260624192,-1.230642315,-2.615965058,-0.849321235,-9.652487341,0.966075068,7.661622274,-18.98790953,-29.96620695,-68.97199584,4.047203435,10.76743803,-30.91146136,33.68384104,20.51996882,15.30200291,-5.224056815,32.32415857,4.662034014
2.5397332,-16.51211921,2.350769002,-10.18619217,21.82529409,5.518690113,16.74992478,2.673037516,24.32548826,-7.794689736,3.408167015,3.730360666,-13.85905038,4.319578798,-9.878908344,-13.14480324,6.679505905,-1.055984181,1.402155744,13.78042303,-11.85684314,-28.28047949,-86.25906542,-0.5390715,7.128420937,-3.049513764,40.35200122,18.5182623,10.47378692,-9.604097882,28.47200423,-2.226785257
8.071125791,-9.15496581,8.494746657,-1.449498279,23.57994417,9.196814834,16.83484301,-14.75849769,25.0195371,-12.30056361,7.296314847,-1.465583149,-17.33871303,8.305352646,-7.707717131,-15.37462919,15.2888556,8.65356982,2.272074901,21.4183306,0.243750006,-24.83387313,-103.0429544,0.247208826,1.323852848,-8.262106757,35.00228239,21.31392554,3.251116237,-26.08454831,28.78585567,-2.825851061
10.10794266,-3.691201843,11.65616576,2.277166952,19.9549396,8.64805318,14.48334856,-22.77967207,24.05425491,-8.771242672,7.47166063,3.744382682,-9.123960494,13.62306929,-4.214407357,-9.080964149,16.26962031,8.424290838,3.981999933,17.94603318,3.142146784,-22.06837014,-80.1088203,2.520019402,0.777612539,-26.9838228,23.25027426,17.09395673,-2.049621505,-32.6985589,18.39846512,-6.254761121
7.931535434,-3.606947259,9.501603027,-0.06059994,14.3593794,6.668261377,9.955477664,-8.551089302,17.27136064,-5.455885259,0.667315476,1.251863734,-7.054564628,8.235296406,-6.3900359,-5.583254397,13.15847814,2.293413491,6.496751609,12.10824388,-2.55758167,-15.64438859,-48.08208466,3.078332108,6.481398545,-24.05060659,19.58086874,11.21166009,0.463373788,-26.7178166,10.35510371,-7.314862471
4.992890325,-3.001144804,8.340560003,0.049434587,14.29673625,8.913056195,8.194248437,-10.5572267,13.47713251,-11.01447135,-2.125548781,-2.582009972,-15.61131334,-0.153731343,-7.687266226,-10.12964928,12.07715438,3.821806716,7.625294622,19.2641027,-1.576980508,-9.237147232,-58.44608511,4.234847407,7.91513671,-27.83713624,24.04393931,15.40008321,6.390734805,-20.11735273,21.95157173,-0.911666302
1.282062227,-2.872633389,5.137457685,-0.550471782,12.23313988,6.010885978,3.668317321,-8.84114538,8.472141352,-15.71346651,-5.275019798,-6.471203926,-18.51769278,-2.313969867,-6.720281859,-12.87009934,8.99513342,5.973650964,3.810849942,20.26565192,3.19632865,-3.985909809,-58.82052346,1.208761287,5.286422274,-13.34780863,26.12667386,15.06595638,8.461449412,-6.661669581,25.83319379,1.933819754
-2.636878001,-12.61826311,-1.283905485,-11.14703905,5.540262071,-1.263570552,1.217245127,-9.492704664,7.146227372,-10.85281731,-6.613959486,-4.968110034,-11.85340577,2.990424191,-1.996005123,-7.916330035,3.227227934,-3.260471792,-1.015139973,8.582248321,-1.196460827,-8.273851155,-44.30611244,-4.710049422,8.479696904,12.39391711,30.69002242,11.91027335,13.89377621,6.421403422,26.01999803,6.892351785
-1.655961322,-12.43033817,-1.68802142,-8.189520839,2.633823098,-4.685575301,1.529031755,-14.0048618,7.662775975,-5.639894628,-0.950285047,4.066807409,-4.648596979,7.107921049,5.927140293,-4.138883098,0.838109329,-6.758343694,-3.498872608,1.127346206,-1.837455903,-10.38191827,-35.15256425,-7.593691905,3.939134468,-3.692127632,22.21101984,7.172698915,13.05203853,9.193355886,25.76429759,14.72141252
0.573655198,4.099988542,0.148929704,11.81269854,-0.474423441,-7.876901149,-5.912738667,12.16070458,-2.8886689,-6.560969459,0.086812872,0.23745802,-0.897952271,3.841140553,8.403902775,-5.881017675,-0.186014127,0.303254263,-7.548927446,-4.651814398,5.834702747,3.89033869,-8.544669354,-10.69761595,-11.01535841,0.885534114,-0.314966056,-7.42910999,-1.367056416,12.31273691,5.818447685,11.83789851
-4.000512189,2.350167744,-3.888483913,11.04689225,-3.387393469,-9.350502533,-8.328586293,17.67164848,-5.126279637,-6.281789316,0.146035615,-3.847500273,0.738407173,2.549127524,6.117871422,-5.498424088,-5.458261115,-3.011509607,-11.30862205,-9.602402754,3.275259436,6.934724521,-5.383333364,-12.20720758,-11.02066257,44.63671095,1.276168622,-9.270079773,-3.570545088,16.93134171,-0.961553918,7.829294086
-8.415125689,-10.08719909,-6.45748973,-2.996899786,-1.508188693,-5.006646048,0.581238747,-9.661040887,5.852189233,0.246368727,7.178125209,9.85664182,4.494190365,4.290122379,6.121413796,0.804160884,-9.866690009,-9.827315445,-8.195882888,-6.662428987,-3.32626999,-3.774464153,-18.46596678,-6.26759302,-1.122461576,22.79931052,7.759811109,1.913924187,4.850956763,14.39700514,10.8942535,9.601950392
-3.440491039,-0.911175521,-4.034792605,-3.011643777,-6.906851729,-0.584459887,1.141248857,2.375940949,0.092426931,8.809684062,5.608467404,9.643304952,10.17154372,0.082910132,6.073382306,8.140564175,-5.847295926,-4.709354653,-0.035634428,-5.427173492,-1.027631276,0.579518613,24.14659679,2.308427051,-1.490545532,-32.76521752,-15.03749794,-3.654730084,-0.418459788,8.798402207,-3.822554466,5.153091517
3.763923198,11.73382225,-2.552420017,-1.367915493,-17.54941611,1.494656855,-5.449855268,14.75621321,-16.13511825,13.44006316,-4.576247764,-6.4374322,12.67870798,-5.145967239,4.056735171,12.30764158,0.175612073,0.329312492,5.473858628,-9.960821784,0.573956494,9.043918254,73.67622768,7.087003107,-4.39770075,-20.33370432,-32.84430115,-14.69190078,-8.358484853,8.723221078,-27.51963998,-1.993947264
2.220920062,10.39466638,-3.312230398,0.7133421,-14.91199339,0.778821243,-6.978809009,-3.751336501,-19.51700812,10.7824595,-6.409474869,-6.557834427,11.02566325,-7.097462506,1.704797513,11.4454304,-3.116014813,-0.398349657,3.321262296,-12.07504777,0.562608348,12.76628453,74.2562034,5.934939927,-3.66267514,21.64578896,-29.7231018,-14.83913555,-9.488258994,11.208051,-30.83792256,-6.084583388
-6.462144876,5.935399106,-6.028934702,6.377878468,-7.448597746,-3.896884901,-7.461320718,7.128922342,-15.29963538,4.389348544,-2.586470855,-2.69462336,7.135069648,-6.845063238,-0.101330348,6.433609477,-10.99384781,-1.01018284,-3.320146756,-11.09364321,2.003642363,19.1156805,57.98724832,1.411417184,-1.576241897,38.11903239,-20.69014917,-12.36711781,-9.28502321,7.594686592,-25.61652924,-8.854046868
-9.541146897,3.129332045,-7.42959035,1.080035734,-10.68232116,-5.9666916,-7.738924515,17.70819265,-12.48482248,4.655881644,0.374700378,-5.462637758,8.467053143,0.1197805,3.981355344,5.994364647,-11.67041703,-2.285641358,-4.518480825,-10.44882554,-0.947252784,13.51496226,45.75310127,0.575043389,0.471964654,24.5057209,-12.08268072,-8.783466972,-3.799575904,3.475376611,-16.20501324,-3.759376052
-1.646063517,8.555398789,-2.272953293,-1.801151785,-12.7293189,-2.001897395,-6.114866787,6.514658817,-13.34443499,11.853726,2.59681683,0.981390535,16.70396347,3.451814977,9.070206556,11.95377715,-6.868721564,-0.860460318,2.067006532,-11.62442865,-1.818764967,4.504350201,58.64602,2.559248149,-4.627885542,-15.98065254,-26.52908919,-11.72739621,-5.005873695,3.025820247,-19.30299672,1.772757806
4.890953364,19.45610962,3.948501101,8.974379873,-5.320756923,2.336506529,-4.872129398,24.92309341,-13.80251296,12.94769565,0.169314705,8.628636413,14.21342271,-9.438001164,0.234517757,10.31305984,-3.63630157,4.180175122,7.015512071,-11.12242542,3.775529719,12.10964555,83.15233102,2.859221026,-9.838339687,-26.34973926,-48.65678276,-20.78757085,-18.58419835,-4.224012517,-40.16556967,-7.330264941
2.833376813,21.50701312,3.843783823,15.82863521,-3.131035616,1.402596352,-6.567416285,35.54467891,-14.09235454,6.419495258,-5.207889961,3.788367998,2.319854245,-20.56693141,-11.58329808,1.905679542,-3.034186705,6.899218972,4.820212164,-8.221038982,8.022374162,22.42659068,80.54511518,2.999325451,-6.832049658,16.6007492,-42.08216129,-21.06794811,-21.86440659,-6.751502352,-47.36638167,-19.33846582
0.535967525,19.57624344,0.443118064,17.5501879,-12.07888249,-4.472257373,-14.53477125,16.57147008,-23.91074974,1.640639535,-7.549609668,-8.332912029,3.471596043,-14.80110296,-5.946819479,2.098619822,-4.195017991,8.878653642,-0.094052888,-9.273726735,11.41708102,28.93578409,78.20365637,1.181102566,-7.870978653,38.55535177,-33.3157276,-19.64900433,-14.57080261,8.256673676,-39.18619202,-17.53353773
0.760389726,18.27465062,-0.562597958,16.58867842,-17.82632999,-5.619626636,-19.00859579,14.20903915,-28.64723514,-0.772576569,-6.023159551,-16.48109095,7.990318284,-6.952197121,3.781841508,5.076024407,-4.039289677,10.85945975,-1.816474745,-7.950862198,13.98243932,31.20544146,70.97030873,-1.455044052,-11.41780622,17.87787788,-33.13725191,-17.47071755,-10.60518731,13.45931848,-27.98032629,-7.269418062
0.562421247,13.69736644,2.287467732,9.089551949,-12.87265216,0.834366725,-11.45312659,-0.184244941,-18.13639285,0.935434388,-4.293082061,-14.18281457,3.058470742,-6.698001111,2.054881774,3.973223446,-1.817318457,7.837835053,1.741939623,-0.860424256,10.20739777,21.13745359,41.99132663,2.259134585,-5.678895245,3.97462808,-20.84661374,-6.738715839,-5.458770106,1.632348931,-15.79121459,-2.262982187
1.485171942,11.37355006,4.103186314,5.980601906,-6.506149148,1.90413616,-6.449839074,-22.65932775,-16.66354575,7.503187434,-6.521084675,-12.58355534,4.324729745,-6.513690108,0.534987526,8.178507264,-2.434730521,1.723051968,5.219553027,-2.596682658,3.650944932,13.40572463,45.61377747,5.663097018,0.334410068,4.221189473,-16.56583371,-4.432104267,-1.107180439,1.14740715,-16.34003653,-4.993454124
1.991190862,10.45173036,0.684421445,7.436227043,-6.539475643,-4.765122159,-10.14434492,5.492783372,-21.25910818,5.536659494,-7.252471497,-14.76419256,7.259073644,-4.879662056,3.618158022,10.19573184,-3.692228731,-0.068709624,1.119793016,-8.461117376,1.63621272,14.42571162,54.32977422,-0.019836597,-2.071433576,6.906178103,-21.64768859,-10.1635338,-2.628370239,9.030245231,-16.88291776,-4.873677681
0.319249533,7.1726089,-2.725288241,5.145080832,-8.873295056,-7.938752715,-10.82320015,30.4599076,-12.72295577,-2.834276695,-2.268190041,-6.278219566,1.23855311,-4.34025226,3.445221405,2.521376182,-0.943019133,2.545818788,-4.93181695,-6.402330747,4.634483312,10.2516,23.70045353,-5.2081347,-6.215591107,13.58911026,-15.49496404,-8.024758314,-3.370465132,9.111077518,-4.887401689,0.148371339
-1.207602596,0.669051902,-3.398567295,1.175057699,-3.869734213,-5.589872464,-4.675666873,5.460504313,-1.379154391,-1.147133439,-0.327538467,3.423926152,-1.232752378,-1.665802956,0.990565967,-0.619441964,0.377065586,-0.073414797,-3.825813805,-4.71616201,3.732469713,1.155329809,2.127805618,-3.084178086,-1.613655572,11.32041057,-1.616549279,-2.422300647,1.277496095,6.803991398,2.099113842,1.852552571
-2.073279692,-9.899446117,-4.07434305,-3.592025791,6.985715513,-2.325290761,3.669692603,-8.502468119,8.836861699,0.048067124,-1.047007461,3.378155022,-4.297718935,1.345818242,-2.875539824,-1.83635592,-0.438495152,-5.66009158,-2.329671938,-0.993946319,-3.350665178,-8.574047156,-25.35103388,-1.491489393,8.474481398,1.424534484,20.88255209,6.920567861,8.407611499,4.047750337,11.73403045,2.557077946
-0.026665214,-8.668927705,-1.822523629,-2.486236085,8.326859797,-0.848626812,4.868402358,2.445368397,12.65947654,-6.892645333,0.579449468,6.782957588,-10.12536324,0.935192637,-6.362231319,-8.859691871,2.83499282,-0.98060725,-3.515033028,5.812228838,-2.445110574,-10.39008532,-50.33575728,-3.374440385,6.467006673,4.256776234,25.7699373,10.15086887,6.272599235,0.698903347,15.93263631,2.340288634
5.155075859,1.250861827,2.800417487,1.211847127,1.46497029,0.72207129,0.980997596,1.650918529,3.338370565,-3.688879276,-2.151445436,11.5681907,-3.197398577,2.468364478,-5.147506749,-8.279426481,6.872308776,3.725445229,2.619375907,2.949338292,3.64118385,-3.141467266,-12.9818542,-2.679431773,0.222498417,5.211350507,0.698513026,-3.467281992,-3.549060209,0.067842541,-5.394257295,-4.94193304
7.073271933,-5.502201184,5.211095152,-4.495236737,6.411758638,5.971015302,7.569528414,-3.178831997,7.056936899,0.935302935,-4.976497774,7.730986363,-1.993076497,4.007970177,-6.338273764,-6.390840486,8.143582943,-0.556387185,8.680157831,4.71730292,0.477539307,-7.141789377,-10.02195343,0.499641094,6.435913833,-14.30419212,6.721188404,-3.42666887,-1.449118183,-1.518107102,-6.611834523,-9.73818292
6.414406123,-11.48238164,7.275971758,-3.080193378,19.10992162,8.296317223,15.17643134,-0.410978936,20.65270442,-10.47296699,-0.778909032,-1.383095556,-17.98272455,0.42297232,-9.669787272,-15.9711312,10.25133029,4.199150823,2.884539534,19.00807081,-1.063994544,-13.09853344,-74.40266704,0.279732784,7.093780944,-22.66687509,35.8971541,12.64384786,4.6847923,-8.588131018,20.76384799,-4.002602544
6.816835668,-6.394916494,5.9657992,1.112467288,18.64874437,4.563776648,10.93349108,-7.841039253,16.33632831,-13.57663517,1.113504313,-8.316108352,-16.16105664,4.819947334,-2.781158047,-15.7272738,11.48217875,9.104984494,0.162648258,19.79902994,0.369201464,-9.819808472,-74.78106726,-0.039914223,1.997527612,-9.481802688,27.67960202,13.15166826,2.315847706,-21.65133502,25.44422709,4.754305605
3.243038455,-18.7288022,-1.231055241,-18.20818208,9.790348762,4.878710037,11.72446763,-29.13631126,17.49750778,0.855330902,2.281191484,0.793076335,1.829683055,16.21985185,4.951173117,-0.700854094,8.768822699,-5.983665214,6.578671025,9.657037931,-10.06433864,-23.51677226,-45.43930543,4.796553107,11.50888605,-15.6083201,20.58022355,14.14249564,9.128461418,-26.60239941,24.71190894,11.28256616
-4.115056725,-31.30941853,-3.860928407,-30.97936726,9.273862275,7.790394005,18.71949268,-35.6004668,31.86001565,4.149408013,9.237825337,15.69499086,0.923322391,14.06705423,0.794551891,3.434334398,4.417088353,-16.07793223,4.906740322,9.625276035,-18.11456722,-38.57973687,-72.19084957,6.905282924,16.68766148,-31.56944368,38.80931338,26.84465605,20.63968226,-14.31548725,39.73117849,12.20112351
-7.605091602,-25.1727361,-1.072179884,-21.47132768,14.57922014,6.130398337,19.26384379,-22.9737951,31.93692567,-3.631359065,12.07357907,10.69597863,-8.743083925,8.94355295,-2.038731247,-2.230534683,0.433004854,-10.65122866,-2.220878731,12.74315677,-15.28784182,-30.42952573,-96.65143035,2.095329399,10.3939312,-19.68067554,44.35452923,30.35430173,20.5145771,-10.85272889,46.07200265,10.12881751
-5.687646154,-25.46033998,-0.560050154,-21.57034666,16.25217097,5.292745638,20.21742759,-24.9091141,29.51726561,-5.211247103,10.85400333,4.362586958,-8.849678934,14.60637704,1.690834385,-3.818918726,0.038977059,-10.79646334,-2.701108264,13.77936665,-15.63824069,-30.25704233,-104.8097203,-1.661742329,11.38990356,-11.16767535,47.83620265,30.98357015,20.92501725,-20.43393696,51.507673,14.27914954
-2.975266366,-24.19833377,1.923679069,-17.37787802,18.10314632,5.918082465,20.48262294,-35.51154045,33.46110297,-8.382865316,13.34458198,11.1622344,-11.76769189,13.78225448,1.052090247,-7.661245224,3.919902803,-7.929050235,-3.64521949,16.83364433,-13.06272276,-36.21420162,-118.4999975,-2.351321256,7.243374503,-27.35938039,53.89332698,32.59218794,21.05033997,-13.91737508,58.15298617,17.93853177
-5.220369195,-17.77323384,4.092227615,-6.089961341,22.49780829,4.997181025,16.78217273,-29.87964447,32.97960136,-13.59209137,14.04246193,10.65341975,-17.76039971,10.40337311,-0.916225073,-12.90554568,4.520021201,-0.490007102,-6.389114077,18.02104938,-8.142203075,-29.54062078,-123.3900192,-1.342493151,0.763354154,-30.45004193,50.75015355,29.56966109,16.5684287,-4.834228294,56.71589089,15.35939347
-8.812089875,-25.31586692,-0.82155594,-17.50034351,15.75582499,4.888149485,14.7841344,-23.79818109,32.2420163,-9.11217538,11.17287559,10.98175039,-12.66049422,16.4047652,1.519522615,-8.999506953,0.788663013,-6.841416745,-4.084943896,14.44471044,-11.94058301,-29.34710819,-112.2893999,0.873440634,8.943250679,-19.82262095,49.80212787,28.12024148,18.13955122,-8.021849254,54.56023772,15.94687382
-4.00534566,-17.03458098,-1.803717205,-18.12666059,0.288917379,2.499622036,6.637936676,-19.72267229,19.87546403,-2.379949487,7.618543054,17.07312206,-1.178556397,12.10778849,2.679608834,-1.563409577,0.943558605,-9.28785207,-1.753996976,4.640276307,-9.093293463,-21.67221474,-55.94552042,-1.092204684,6.781150425,-17.78651738,28.34968347,15.22493176,11.87565394,0.100654682,31.36903531,14.38054485
0.813742158,2.776501765,2.89711736,0.236898022,-0.429594694,-0.572131344,0.23561016,-10.53621912,4.842132993,-0.872567677,4.007522506,10.97747123,1.761713503,1.861786492,1.288023128,0.020027706,3.239528188,-0.484586749,-2.04390297,-3.247101275,-2.60498227,-5.523226299,-8.000951598,-3.976412397,-4.105638965,-11.18242768,1.455170377,0.028520027,-0.492932343,7.526527356,4.282985245,5.821397159
-4.846553921,-9.562003875,-0.611332444,-8.268333567,6.340148031,0.66318261,8.687415545,-7.695558092,14.98260578,1.651230495,5.455429716,6.950824194,-1.673529911,7.516609828,1.658167938,0.172975268,-0.017896282,-5.221156316,-2.356724783,-0.841515523,-9.948028413,-16.49131413,-39.76299243,-1.855259401,2.784429577,1.868395785,17.57851697,9.085112281,5.811357551,-0.916450382,15.38655401,3.4756939
-6.798661396,-12.62347169,-5.688994687,-10.24645669,2.10199919,-1.521068628,7.318969954,10.66146365,13.63941743,3.178164983,7.137139087,5.500680535,0.535415,9.340566976,3.382387757,2.23140762,-5.216983407,-10.54749904,-5.359611182,-3.375219868,-8.416715355,-17.02177465,-36.19140343,-2.777640991,1.375655271,9.57506461,18.36370228,8.429136723,6.4404852,1.640113632,12.64606289,2.287668224
1.452655804,16.89216348,-1.527541207,19.81969096,1.652420546,-6.481034502,-7.384407469,42.10451629,-14.225758,-0.830805785,1.160653281,-10.10128721,3.779298122,-3.629640341,2.947427461,0.467768965,-5.083227563,2.284823465,-8.322004065,-11.47097371,8.124145607,16.09625503,33.25708702,-6.216231846,-15.35362561,12.15974457,-23.59210917,-14.57016825,-12.79515894,8.956958505,-23.01548533,-6.556150121
5.194194459,21.94663696,0.561677885,25.00691013,2.749197478,-4.826691316,-10.10873431,30.87232983,-18.46611524,-2.108702728,-3.142474206,-10.5224172,2.094595897,-8.546573386,0.916183111,-1.349415707,-1.364285924,10.18659762,-5.33512438,-6.523425733,11.84181781,24.05324302,43.32749398,-1.915611377,-13.56151541,4.16904251,-31.80976509,-16.40798134,-15.58872738,3.629850474,-26.9290325,-8.043177929
3.963025788,13.07598478,-3.582093969,9.545966452,-14.94457279,-3.199250769,-12.61490961,0.839674882,-14.12836864,4.242538089,-3.608351126,5.461428681,6.369414784,-7.813968697,0.975725779,5.425294298,0.173827485,5.533865639,1.042863216,-2.93449357,9.714589116,15.2992623,52.89468014,3.408947104,-5.349369362,-2.086219911,-24.90426428,-12.30860494,-8.912335788,6.25035206,-23.85044826,-3.98018887
6.46814174,28.20929477,-1.512994788,18.27191754,-27.70341145,-5.323994773,-22.59346989,15.31667604,-33.79294028,7.795565915,-8.782493091,-3.357167023,12.84280149,-15.34988049,1.292256204,9.306300625,-1.652809726,7.39059831,4.914726598,-12.12414102,15.86568994,31.60493928,117.2114292,1.957696103,-11.5098025,13.21707664,-51.1628453,-28.54542604,-19.45613335,12.55923685,-50.60665877,-10.75017877
7.62042644,38.63387886,6.139287046,32.7443276,-17.45367617,-4.422655167,-22.21534617,42.25677435,-44.02470687,3.409288179,-13.40923842,-22.24119832,8.509582438,-21.33646987,-0.205870518,2.438380383,-3.931465242,15.74998604,3.259896101,-14.06174116,18.42752505,44.26439795,127.5982332,0.00298701,-16.93228408,29.1807573,-64.63762941,-35.38332933,-27.73483643,6.943854318,-60.66384271,-18.5252924
3.240166015,32.73812195,5.042486913,28.27911592,-13.77520887,-3.762803622,-19.31142532,37.61357048,-41.67709197,5.496266657,-14.48445655,-24.26825763,8.651781139,-21.0710619,0.415885722,5.634813157,-6.649266559,14.64942951,1.232481298,-14.04730998,16.2869277,43.04410539,121.9010143,1.469028617,-13.26552207,32.51051799,-60.35251069,-31.88601583,-23.52607572,6.486401224,-58.46194726,-18.15316
-1.101210918,27.3425145,-5.60754718,11.50436808,-25.96658496,-5.82686919,-22.30654425,24.05036709,-48.62175446,18.67016581,-17.17403664,-22.13645365,22.26166541,-22.70358873,1.819886322,23.642284,-11.56974861,2.340914116,4.911058838,-25.60579121,12.78620507,45.88686479,171.897739,4.894580942,-3.599115269,39.22853229,-68.98305748,-35.98683225,-18.45118396,14.22246937,-70.57178043,-19.24751648
-1.812410732,24.37187815,-9.939989207,4.459530214,-33.34302104,-6.425316659,-23.87663959,21.78067605,-50.72533254,21.41342274,-16.8105964,-21.92679049,26.05392745,-24.59286788,1.083894748,29.59127229,-14.17729689,-1.095366216,6.241422082,-29.06709639,8.572094362,45.35713527,184.0385643,6.148172062,0.455903289,41.49846656,-69.58873423,-35.0734636,-14.21053748,19.43387958,-68.4130071,-19.42177266
-0.996854006,27.0202847,-3.77033557,18.73743981,-30.81037296,-6.35572486,-26.87566526,20.03308731,-46.72755428,9.959815634,-12.33134073,-25.18783592,15.34253818,-19.70137264,1.567272584,19.17908801,-12.00501489,9.439941534,1.127570502,-18.98553948,11.35688442,44.25118361,143.3175457,3.397913543,-8.637456329,33.67930431,-57.95194071,-29.13094626,-14.30122704,22.48291122,-54.41484078,-12.70875933
0.245753254,28.62618403,-0.73013407,24.08759818,-26.78767276,-6.288589905,-27.94898288,14.25652639,-45.89487016,8.844452941,-11.75762036,-25.05837446,12.9143582,-13.34480372,1.262150502,13.74579493,-11.61824228,10.76143764,1.54024693,-16.82601664,14.15126486,45.38756273,137.2752171,3.484225918,-11.0849158,29.67369964,-56.29030165,-30.26736489,-17.48522984,21.26096914,-56.11267321,-10.02164979
4.471573953,26.60081885,-2.488401029,13.19037359,-28.41722128,-6.722156964,-25.99062727,18.52066794,-44.90795239,15.87196579,-14.95250654,-8.191968177,20.09590005,-15.02703185,-0.952263706,13.50646611,-11.70663361,4.880959244,7.795230948,-23.27723446,11.44146401,42.49014555,167.1435539,4.780558945,-6.332428096,26.0708745,-66.99419558,-39.36385709,-20.25073568,22.77197898,-68.57672289,-15.48059577
7.468040688,28.65355948,0.814738487,17.21415922,-27.37405477,-8.294931029,-27.52864122,30.44350407,-42.23900047,6.238461286,-16.19969684,2.096023989,15.99082993,-14.82578242,0.658897859,2.9870067,-5.002040145,10.60270626,7.663828103,-19.2114143,14.5120993,39.97535566,155.7405326,-2.05461717,-12.36770315,27.06458236,-66.70138545,-45.57383784,-24.66256533,27.08513372,-67.65345468,-15.52033487
2.703258597,19.65161154,5.639339337,22.98282763,-10.877556,-6.977120365,-19.78061257,28.33849872,-25.00641228,-11.3808917,-12.05772073,-2.979565859,-0.791316481,-4.033846245,1.620263629,-12.88004484,1.421678936,13.81494618,1.791848975,-4.059789808,16.88950088,28.48724483,65.38951325,-9.905296246,-13.93215503,31.75121477,-31.53533355,-30.58909445,-20.13937992,17.72318076,-34.99238853,-6.286403423
-1.134096733,5.288288023,6.032436791,14.91347582,4.25748454,-3.735653113,-4.64000542,19.21922427,-1.949506274,-11.70610989,-5.263647954,3.756567655,-8.98311726,-0.831946563,-2.293661744,-15.01727026,0.900565133,6.577544816,-0.553123938,1.526997588,10.20483878,11.36019666,-2.669080472,-8.100571642,-6.033126937,11.48736676,-2.251069981,-10.73205657,-8.438848521,6.359571528,-5.857084701,-1.694580391
2.194899632,6.875615526,5.377150986,10.34555724,3.180566182,-0.772757097,-1.091072277,11.76622985,-2.478153888,-0.038071769,-4.541261511,7.869686254,-4.305099389,-7.774913291,-3.426192698,-4.794536275,1.40619282,3.259575831,3.890592743,-3.711077546,6.212498965,8.730413508,20.11713504,-0.425325298,-3.660012867,-8.659920012,-13.00564105,-9.648191022,-6.374149181,3.191842322,-13.67429418,-6.037287546
3.327112114,0.487035068,3.897379852,-1.594574588,3.206491713,5.103676867,4.176793567,-7.243931525,-3.569919868,4.977096882,-7.605727108,-4.974240893,-3.475832378,-3.487392645,-2.783833878,-0.692369267,5.576570738,-0.688997387,9.631114361,1.036638304,3.538784487,0.453119683,14.3761323,6.252943095,4.110794548,3.166010516,-6.268048612,-1.873696208,-2.867374985,-9.091754252,-10.4175986,-6.682401904
1.858347339,-16.53025962,1.325628913,-19.81574054,10.21968414,8.71463932,18.00835245,-17.54429714,17.39984854,2.669521776,-2.597197412,-3.527687885,-7.163348773,4.900640252,-4.781906995,-3.30582903,8.485419967,-6.499929761,8.577802913,11.35720682,-4.165903212,-21.91939318,-49.45599919,6.961342042,13.06105065,-8.701281786,26.31170163,17.41379404,8.49456272,-17.90370277,18.38144131,-0.22850752
1.311306576,-17.32930532,-0.686054765,-19.8456822,14.25430841,5.280390651,21.55551119,-8.655165367,31.40217899,-0.165575492,8.738905641,9.438269879,-6.043694965,5.359418453,-3.886393805,-2.928734967,8.994913002,-4.827959541,1.522324591,11.10769882,-9.212786257,-29.62856967,-75.11241609,1.504448333,7.27830549,-42.05758737,34.1120213,21.31969363,12.37848358,-11.16779602,30.40989309,5.5796502
-4.177115716,-24.33925366,-4.486397834,-22.1031377,18.26144905,2.780396372,21.74476473,-17.82867399,36.53724256,-3.172782668,15.34486253,10.91908253,-5.305967155,14.05614692,-0.631395074,-4.322493199,6.014346,-8.167704866,-4.68812338,10.5918713,-14.40756952,-33.50696238,-102.5226792,-3.1343866,9.12921368,-25.99679508,46.83697663,26.29749529,18.37476599,-15.01978245,45.06040007,11.86220684
-9.632596001,-46.93169989,-6.820812262,-39.22116368,24.51181048,4.626995275,30.06094849,-39.67179657,51.13645647,-5.162913299,16.50004209,16.67347109,-7.28890326,28.79912439,0.239410499,-8.190317243,3.064246962,-20.93336409,-6.672066903,16.54141717,-24.6841913,-52.48870791,-165.1911234,-4.497014358,23.89945153,-11.61091188,81.78820016,44.35385963,33.97506738,-26.23957329,78.12238888,20.94426482
-9.241666667,-55.65543074,-3.164491683,-45.40011716,32.24193134,7.269386746,37.37892913,-46.56406432,67.31000329,-5.817407966,20.94015852,33.17770159,-9.286336864,33.28813621,0.875197093,-8.137091582,5.368396449,-26.9615257,-6.843615832,21.35080978,-30.9696704,-70.13020472,-208.2116403,-5.024672235,25.60685595,-47.92074645,97.7223468,56.04180999,41.42839595,-26.73240461,98.65027265,27.41075577
-9.865185201,-54.36530594,-0.315825504,-38.95549546,41.21187212,8.909179866,41.1125596,-49.39687997,79.83571627,-11.09583582,30.06214035,40.15708093,-16.19442586,35.43967646,1.936384706,-10.22348549,8.078493163,-23.76308605,-11.27212689,26.40895058,-30.44485399,-79.0334267,-248.1838065,-4.756417873,17.54289231,-57.33018186,103.3349355,63.71704723,39.68402377,-31.93280124,110.2903548,29.40783274
-7.353644297,-50.33387001,-1.384383138,-30.90579236,42.47277154,8.256015555,39.9178732,-45.16019428,79.95235646,-17.11926536,32.42599341,30.70755607,-23.24383426,36.62409183,1.873608803,-14.21268974,10.46445291,-16.07492627,-15.64663239,30.0324306,-27.67475287,-77.69562193,-267.0855334,-2.543601478,13.84934889,-41.70460444,107.4143383,67.02536293,36.50056715,-39.5532214,112.590398,27.58540192
0.478321521,-44.09337344,-0.704809276,-28.03712549,38.96675586,9.741838324,36.38972858,-43.23477211,68.78421152,-15.52765724,26.61173755,18.39777908,-25.09966562,29.64490689,-0.413089109,-13.44008858,16.72112749,-9.239654537,-10.6988433,32.80907763,-24.82946365,-70.73670422,-244.8063381,2.447767485,16.45341228,-61.59594856,104.0017628,64.17952801,34.55121539,-34.0327404,102.1327837,24.1783195
1.048448435,-52.20690894,2.746621541,-33.91522736,43.58775136,15.59654177,41.3865301,-70.45298382,73.98967044,-17.21281465,24.94783476,19.43916568,-32.4177306,26.21758216,-5.132692419,-18.87980618,19.69365116,-9.65519295,-4.990443763,43.48290261,-23.76956705,-75.43822372,-267.6365825,5.398876754,24.26643746,-71.89515708,120.0049518,71.88935174,39.79941287,-29.15641042,113.180011,26.08399983
-0.277409692,-55.18736384,7.049146326,-30.11271808,47.68978286,17.5497536,43.89177122,-80.46971893,79.9365989,-25.63105809,23.02635903,24.69269463,-39.78943197,26.09430322,-6.971447648,-30.03440036,17.47638267,-9.072603379,-4.279149489,48.29120607,-22.75478782,-76.50244585,-285.9924783,1.871145329,23.15649826,-54.11088674,125.7646428,70.96444902,40.08124359,-28.23982628,122.5972814,29.2924675
3.980117902,-37.01443644,8.314529118,-19.14281411,40.77389924,13.89569908,33.11165078,-44.89831747,58.55213378,-24.11019557,13.08645732,15.79231929,-32.47239393,19.98640388,-3.539995313,-28.21259045,16.62469755,-5.33933299,-0.58062224,35.89250408,-21.2393306,-59.79178102,-212.0672755,-1.525928049,12.47221024,-48.19834618,90.0125212,47.28210126,28.46779741,-20.27069722,94.63125088,25.52776411
0.549327121,-30.86370869,3.527099778,-21.69840096,31.01483566,9.596890612,23.77627883,-29.21273092,42.74617762,-18.26694098,9.900388732,5.015905216,-23.89273042,19.75309485,0.219599429,-19.76673407,12.44780228,-7.439125147,-1.149707741,27.03460085,-20.51965605,-49.05953904,-170.3104545,-2.597858677,10.79552749,-31.74771947,75.26767309,39.76920697,25.92320055,-14.00853201,80.90223057,22.29399902
-5.959742977,-31.27623685,-0.149912669,-20.25156084,20.40133527,5.117752972,17.64078678,-41.61009191,39.00485807,-17.92894664,14.08559296,1.764410981,-21.28451885,20.39015581,1.476965063,-15.14688888,4.618531196,-6.83220221,-7.422903745,24.60352203,-15.41820538,-40.18317982,-169.7989566,-4.281890678,11.78148427,-3.655011118,78.52308897,43.45615771,27.97372457,-12.07468819,82.06212428,20.37444641
-1.556177683,-10.73985132,0.952080397,-7.310320632,4.91424604,2.961525352,6.232259292,-27.43743233,12.93091466,-6.334522067,7.321540037,-5.440127852,-8.253440317,4.118414079,0.326867634,-2.921974582,1.949164683,0.322097223,-1.912974197,11.08406966,-6.082591602,-15.07647197,-67.50823688,-0.038208584,3.442421031,-4.019362426,31.21177367,20.79062165,13.44810084,-5.065723575,37.95472072,9.736599036
2.19941679,9.871060333,0.767817414,1.445652857,-8.400907384,2.812080363,-3.821282103,4.365578958,-16.28518969,10.549887,-2.989129958,-10.40328703,8.143886697,-11.0913646,-0.372296353,11.01821186,0.2009372,3.812469244,6.652205411,-3.919554195,0.787749695,9.136570604,56.87424539,6.814169849,-5.810680532,-11.59289118,-29.12301115,-6.711219139,-5.633611188,2.541918366,-18.89766388,-2.941769653
0.088053727,25.12729528,0.431476049,18.67670323,-17.42634816,-1.349353208,-14.777983,30.59779438,-31.07722586,10.07902562,-6.351185304,-10.86424637,11.42625103,-14.52489874,1.072964706,12.07300519,-6.057111932,10.54456104,3.032055493,-10.06526532,9.515274041,32.99486624,110.5896729,4.43230485,-13.94068425,6.350508347,-57.85537491,-23.70332631,-20.190926,7.420859284,-52.12376795,-14.14497411
1.196240185,52.20085474,2.025646848,43.66414532,-32.41394235,-8.575096533,-35.53386797,60.7058472,-59.67077503,6.034748793,-14.64698124,-23.07226465,14.49584509,-24.48659267,1.442223577,11.69295175,-12.69638678,24.73007376,0.447384597,-19.8164337,25.14536214,72.18460568,191.8052228,-0.233377579,-23.9127104,44.28504171,-94.04563707,-51.79612039,-40.01700956,16.71639086,-97.19066019,-30.66472898
1.317320269,76.59017184,0.677433301,56.936037,-53.83081477,-16.00267199,-57.14934757,86.03062515,-96.17181358,12.89903799,-25.66136177,-36.53292557,28.66020636,-35.77839417,4.014973524,19.57075693,-19.98278303,31.98936538,2.151368607,-37.34464001,39.36164471,106.6183631,308.2374956,0.12699018,-34.08472058,79.7937787,-144.5221083,-82.28990437,-58.57133741,32.01345386,-148.1893371,-40.87686227
0.474486814,90.93893305,-2.537243039,66.24153793,-72.52715834,-23.77855262,-71.63594555,99.29059378,-121.1699782,23.76808657,-32.93818012,-36.28788903,45.68292811,-43.64223416,9.013242168,31.71526478,-28.09276128,29.01252237,3.2326858,-58.9081051,46.47535197,125.0411808,411.8699613,0.580584257,-42.03374448,90.43992812,-187.7237174,-105.9102205,-68.8090394,51.37581808,-185.8359497,-43.32238699
5.72761681,106.534152,-4.467338392,73.83152173,-87.76419793,-28.68330154,-84.64757491,112.7020406,-149.373696,37.53332043,-47.24483664,-40.61958651,58.15171242,-63.23303045,6.009613058,44.54838225,-33.08704502,25.47722269,10.78999818,-80.09262961,53.1938396,147.4451772,527.9219678,1.78980458,-41.41211942,97.70972104,-226.3380508,-133.3472074,-77.2272148,71.41930706,-228.6030009,-54.64456702
8.772525025,113.8282073,-6.645840435,72.95968775,-95.5167722,-29.70472648,-93.18975383,118.6168082,-169.4569614,43.39757952,-58.37038907,-52.71521403,60.31184395,-75.29580423,1.451374276,46.86353761,-33.67510356,26.21308964,14.64627388,-86.25007307,60.61062405,166.5993964,580.3779562,1.606648376,-37.54223317,120.061151,-240.847897,-146.1283091,-80.90104484,80.2027377,-249.2069685,-61.07235004
4.669369844,100.5802188,-8.216369017,67.23574309,-85.84213697,-28.10952969,-84.5557266,103.980549,-152.939575,35.19321856,-49.54448031,-49.38596273,54.57925511,-60.33919227,5.640142277,37.98950723,-29.75202472,23.67556509,7.849115768,-77.03405425,56.43188508,153.8421312,506.2337739,-2.442313383,-38.40233547,124.3438283,-215.277739,-130.1411732,-73.40837262,71.51929395,-218.4695599,-49.90305189
3.716434571,80.97666426,-7.451858614,53.79787346,-70.25378419,-23.06585012,-65.51810008,87.28909352,-124.6199907,34.35806708,-39.35113985,-36.10550964,53.99835971,-47.76271786,7.851129747,35.84742232,-25.37059045,11.42652427,8.466012574,-71.59318161,41.97947853,122.1088024,433.6896274,-1.067335834,-35.0204359,101.4750597,-186.4113747,-113.275049,-62.46690132,59.93120524,-185.0194833,-42.55845173
9.451410147,76.39659218,-4.597957732,43.88847014,-65.2849602,-17.47468342,-56.42536897,86.39525716,-116.0536609,41.43778876,-39.95420184,-31.72984501,57.79779084,-49.6831137,6.811801401,40.02436629,-24.21290672,3.745738787,15.17019292,-71.98361072,35.30172346,105.5444191,431.5521775,3.721692633,-29.93310565,67.6193402,-183.4408896,-111.3552684,-58.2829077,56.01311986,-179.3505059,-41.10889497
14.21212344,74.69477715,-2.61495263,42.40113491,-60.6330285,-14.4586997,-52.84236989,79.9501771,-105.6365717,37.67608021,-37.01904339,-25.52285225,53.7715991,-43.79674659,7.209461309,37.1086459,-21.9857911,4.023589218,14.30226814,-66.46828891,33.10639699,95.05523476,400.8982791,1.883145932,-27.15982462,49.47608812,-173.7461942,-103.9278091,-54.94876698,45.93587663,-166.7102551,-34.23368343
12.64732784,49.01879113,-3.68717197,25.71635811,-43.03560906,-11.83055643,-37.81452665,48.8337,-70.93349991,25.33867685,-27.71473364,-11.54589169,36.30159343,-28.62225696,-0.030032223,24.74224268,-16.67629584,-3.312162701,10.40165979,-49.43882316,21.22478405,66.50496899,279.0601967,-1.257669669,-12.38215942,71.92316226,-115.6537583,-72.61782911,-38.95239522,23.9562466,-121.3263478,-28.83798859
7.910566592,11.36784832,-1.010032286,4.49297973,-11.9095876,-5.012666106,-11.9247093,8.635904957,-20.59648984,6.15445534,-12.44764544,-1.500610221,6.276063756,-10.91082634,-7.18981763,2.556977194,-6.183339286,-7.072738788,5.279747992,-16.01183529,6.558908992,22.29050223,80.76374612,-1.357291792,4.830358761,50.83817825,-24.49146553,-20.28155071,-10.5002918,4.395563613,-39.63896515,-14.31193874
1.782617886,-28.58091554,4.905508856,-11.77919139,30.0941216,8.866805507,23.86283082,-36.93925097,44.78422366,-16.98727546,13.41968134,15.38817053,-24.8977961,15.99431128,-4.604879983,-21.46031879,12.85967238,-2.422616751,-1.426716221,27.74087877,-10.57432826,-42.16507375,-166.3653342,-0.741062396,13.24667952,-59.75935177,71.44048795,42.98804292,25.01356876,-16.63762267,73.15845408,19.79567839
-9.58011522,-87.24680954,2.707425992,-52.00078153,70.05091387,22.5572907,66.65108017,-92.93733319,122.8415535,-31.91053164,39.33776116,44.21847125,-48.1582973,51.47579876,-5.959132992,-37.61217928,29.89593771,-13.35333594,-7.189046933,65.48784163,-38.61481808,-123.8801412,-421.1124043,0.8306271,31.96175278,-119.9334137,179.3167824,109.0645335,65.05552983,-50.44050462,188.3541611,50.12138407
-18.41343894,-139.4909608,0.006271175,-92.70354027,99.95181478,28.22801801,99.58033691,-134.8519653,186.9203421,-45.87455675,57.61613911,62.27216857,-70.01978041,82.32793957,-9.890742946,-53.41080098,38.42052595,-28.36233161,-16.06310121,95.26416736,-63.3334552,-185.7435567,-638.4801753,-1.563535441,52.96392242,-111.459104,281.8964957,164.2087797,96.90177438,-80.18891578,276.6312299,66.66003609
-16.11411917,-160.4194373,5.456198849,-104.9706309,125.9633616,32.80008709,120.7616844,-157.7119387,226.8202662,-59.67321688,71.19016988,72.4998769,-87.70210936,95.48078359,-8.308739873,-66.4380127,47.32813177,-30.70664931,-20.80746639,118.2990044,-76.555439,-220.5413647,-782.7353904,-6.460623716,60.78935827,-152.6932011,342.0899229,198.1613264,115.000221,-94.39928934,334.2791115,79.31812419
-14.96328803,-174.1620433,5.351121394,-117.2549052,140.7077109,38.09427213,133.7380831,-175.7515207,247.9502305,-59.67431919,75.04689749,83.44488595,-92.98341256,95.0497257,-10.37671899,-66.5237732,52.69703356,-38.04953148,-17.14942903,126.9384296,-85.5797411,-242.7855815,-839.7424409,-4.75233624,71.30267835,-179.094185,366.740914,214.3493939,126.6113907,-105.2506258,361.6623958,84.40868923
-18.73538958,-169.4240287,1.078955974,-114.4741447,132.8588282,34.84935584,123.9604256,-162.2995014,233.9243703,-56.74635534,69.05666372,73.45575847,-91.03259332,92.2740543,-10.16907123,-62.96980715,46.24582147,-38.79450811,-19.17796862,120.4134902,-80.6691369,-227.8395794,-799.3232837,-2.202254066,70.9912315,-137.7203049,350.9171614,205.6017779,120.665546,-107.0398027,343.2853457,79.03894314
-14.50137479,-127.0575702,3.961429347,-81.67219709,105.9899742,26.91933099,95.57600874,-115.8284123,182.1414332,-50.81574829,57.93920348,49.19518007,-75.22523651,79.11341478,-1.521459181,-53.10245012,35.27260446,-22.83930171,-19.42811184,98.54297252,-61.13846869,-173.4524381,-639.1699929,-2.706217017,47.26246002,-122.196423,273.2004798,162.036245,91.67760174,-85.47183991,272.7188316,64.58007163
-7.121885104,-85.97581464,4.22597614,-64.16656346,66.85343716,21.66285594,68.97139585,-85.90964495,121.6387428,-26.86427407,39.13291758,32.43124808,-42.0368364,53.75091655,1.651329034,-28.14116483,23.4980972,-19.51725215,-6.322837359,63.77722248,-44.95406033,-119.8971978,-412.8576626,1.745887178,33.7318005,-106.9257976,177.4450545,106.9650291,63.08827681,-55.26679637,181.9577216,43.42987919
-5.192320055,-52.48481576,2.265126898,-45.90269958,33.09394822,15.13412865,42.54954772,-63.23228286,66.92818424,-8.118984654,21.82987887,13.21566589,-17.75809396,31.0924463,0.9011661,-10.27852071,10.38215421,-17.93544002,-0.402431246,33.58941475,-29.11253054,-72.00370732,-228.4414864,4.859567243,24.2335058,-50.95106925,101.8791944,62.17813798,39.01545816,-32.37701277,105.4565977,25.58727209
-1.441482284,-3.545224205,6.719775442,1.456907137,14.31015307,6.468960909,13.31436578,-13.06640297,15.52515365,-5.08623196,12.76472664,-2.523904636,-6.589261247,6.586216099,1.581164254,-4.862335421,-0.131399351,0.930390243,-4.985208015,9.91050282,-7.694762095,-17.7428345,-72.81253193,0.363053311,-5.292885392,-15.4817909,20.73964599,15.52633135,6.383150297,-9.065309258,31.43843506,6.302632104
5.504721838,36.37560984,5.817798225,28.01608799,-12.2353413,-1.535379198,-13.50899297,28.12421642,-35.10674863,9.504394054,-4.805413573,-9.969401312,12.87782125,-21.49787514,-2.146827451,11.27143564,-8.480321388,7.11181908,0.558045201,-20.52522283,10.06852723,33.61087189,120.5508988,-0.139554952,-21.68631461,25.13060236,-64.3234083,-34.81715834,-24.00626281,15.88291127,-55.74323629,-19.87830201
11.40712761,58.2238611,0.141781935,32.49156349,-45.3549739,-7.978373149,-38.63379384,38.0998042,-82.30638863,26.60550838,-27.76086253,-30.73959431,30.63522349,-34.57930251,-1.538675851,28.19697836,-13.28628732,4.982175551,10.22868035,-44.26921164,25.21888871,76.14478959,284.3673456,4.299741235,-18.77269495,75.91532954,-122.6169925,-69.72628313,-42.44446804,30.31427355,-124.1018898,-33.16328053
14.03220904,77.69613034,2.112696782,51.24520151,-55.80040089,-11.57935837,-54.72890344,56.17117439,-105.4390327,23.5030076,-32.01152182,-43.95214205,33.28789826,-36.71073754,4.867945563,27.10432508,-14.22389413,19.30868939,9.854120373,-46.82845844,37.12041054,100.4881056,335.577584,3.468481044,-28.76474843,61.58461515,-149.5192567,-84.76661206,-53.07316193,36.81141488,-145.4128263,-31.42295479
10.34512222,83.1121331,2.802183484,58.39253617,-55.42443892,-14.99787365,-58.91746872,84.58009874,-104.2120968,17.55539932,-27.66687141,-33.3170058,35.5972335,-41.6187311,4.151173919,23.68339284,-18.75918417,26.0894248,6.07105887,-45.79032198,38.649294,104.8857566,337.6041311,0.859478615,-36.32604043,37.89454069,-153.4602931,-89.6355015,-55.17781904,45.37013284,-147.6879007,-34.6515435
6.795453958,79.37693506,-1.45289481,48.58307682,-64.2119178,-18.50697287,-62.51794772,88.41446918,-109.2892507,22.65379427,-33.873848,-35.36561986,42.29102527,-45.30696262,1.771322316,29.26169245,-23.82039522,18.0444747,7.51953002,-52.83209453,37.21960928,110.6923017,371.2221339,2.523915697,-27.78421042,68.11929611,-156.8119328,-93.30423227,-55.07619698,49.43711935,-162.8851281,-40.88654557
6.704326551,81.41741433,-2.191314131,49.90722428,-67.10271167,-18.50890586,-63.78105032,74.45343003,-115.1523676,27.31137719,-35.96186322,-41.12078295,44.0065528,-48.30113561,2.698717304,32.92167176,-23.27333326,18.26495144,10.19946935,-57.02964114,37.33956054,117.3327221,395.7544905,3.163276145,-27.17282396,88.93688914,-166.8016246,-96.2969208,-58.07363259,45.73400155,-172.9504943,-42.42747299
2.753900756,78.39849085,-3.208265125,56.25892719,-61.92719473,-19.11118796,-60.78744214,70.86901738,-105.6726471,23.09555498,-27.3435005,-31.02648124,39.41268906,-48.89576617,2.962489455,28.78617909,-23.06966966,23.31777478,4.912873535,-53.44350384,36.46446195,112.1451452,363.4999874,-1.205071037,-34.33403253,83.43626182,-158.2496451,-92.26144885,-55.79062197,48.44841901,-158.0916739,-40.34402058
0.366168966,71.07516814,-4.972219263,58.94257995,-57.6798697,-20.94836291,-59.38892924,76.41588327,-98.8743953,16.99493487,-24.56642931,-34.59589829,33.73021783,-41.38138412,7.217028268,23.60537991,-23.77350299,22.20250103,-2.20310551,-49.74338602,36.44257073,101.8013567,321.9090675,-4.916514404,-34.21256781,74.81730814,-140.0741758,-84.31593723,-48.99708852,54.30793468,-137.7660781,-31.4182554
2.929823251,61.39953777,-3.904393894,52.26436834,-48.88611589,-17.71924656,-50.14964793,77.1287059,-88.13423564,19.85676452,-25.52873535,-32.40850083,32.54277017,-36.15162506,8.77545718,23.26507384,-23.06317278,13.21217756,1.279039638,-50.09337335,29.26540626,83.22443877,297.4586482,-2.744547843,-28.70980948,53.59356462,-130.6029217,-76.88365124,-42.3351007,47.1797456,-123.1754328,-22.88501065
1.473351483,47.03110743,-4.359361231,35.08599182,-42.67292833,-13.39294392,-37.4972487,69.98588567,-68.19992638,22.81256794,-23.27165208,-10.08147044,29.85538253,-36.59021932,0.941936931,21.74273703,-22.16263109,4.759901519,6.325266763,-46.93199942,18.02429175,64.33429265,264.7850582,1.476351992,-21.55326767,43.77010462,-112.3008159,-67.24475227,-34.43915185,41.13791119,-108.8725261,-23.97124479
1.949814442,43.88723277,-4.235746494,28.07808446,-42.88644557,-11.38340116,-38.64345929,51.47258952,-69.337791,15.62032648,-27.34323068,-20.57620313,18.73097391,-33.42701017,-2.226992382,15.08831265,-14.83975075,10.84510395,6.03260532,-34.82596606,21.73792127,65.86364166,237.2643414,3.128602869,-15.072879,57.18159631,-91.86885132,-58.50317393,-30.52791905,44.49923044,-100.8818022,-24.79975517
6.454866495,37.57125615,-3.237568163,22.38385693,-33.48901001,-7.304474495,-35.22118697,25.48111414,-66.10217913,11.21188962,-29.50433152,-35.19026907,11.11434116,-25.31304824,0.520662211,10.80693622,-4.345125027,14.07146905,8.319748588,-21.50335165,26.04372149,59.26696649,196.4624445,3.260979409,-8.030194814,57.32913232,-75.92505918,-46.08596897,-26.63504017,29.31491137,-84.16172605,-17.56576268
3.49833642,11.48356683,-6.48063014,4.861089985,-19.60083658,-4.724262485,-16.43928405,15.6827809,-28.33019222,11.17134244,-16.56725039,-1.772137709,11.51968166,-12.81702106,-0.185212151,8.561579043,-1.864565761,1.636081033,7.872759814,-12.88340162,13.51982146,26.62159233,109.6185223,2.310626277,-0.947486027,33.17182932,-45.42891312,-25.41310494,-15.41570271,2.469570021,-46.72734595,-8.401832922
0.405312641,-0.704620087,-6.161718644,0.278085126,-11.44500281,-5.177044295,-6.313208242,18.08725737,-5.297258077,3.828428308,-5.65173978,16.35051797,6.750871563,-2.168631515,-0.222881364,2.843815933,-0.354757368,-1.114476995,1.88657302,-5.319029515,6.221015839,7.406930817,37.4741556,0.157872671,-0.878979886,6.578869949,-17.2308408,-11.59336328,-7.222474432,-0.606900249,-18.27118592,-2.535593546
0.753548337,-4.532367365,-0.718249117,-1.582944072,4.458090532,-2.065203705,-0.006410372,-2.632746964,1.943984415,-5.008970387,-1.911789176,1.577118267,-3.92462528,4.905978951,1.140665101,-4.200780287,4.828813159,1.464566788,-0.966848159,5.630903786,6.424204939,-2.694078186,-24.10445445,-2.272964268,1.066349697,-3.531455106,9.336617352,2.150363419,1.104167163,-0.000755102,9.331456042,4.037814041
-5.368269344,-28.39340458,-1.137133603,-20.34797477,20.10740992,1.528190434,14.85254425,-31.47057841,31.18376771,-9.828574661,9.238071878,11.79216728,-9.545219158,20.22557786,3.620107767,-9.580341634,6.493478521,-8.498909967,-4.11153607,16.31170237,-4.593559211,-29.5008758,-117.7766758,-5.733862629,10.80523986,-8.924207325,50.87903129,27.24899288,17.19078185,-17.21308125,54.44238593,16.1047544
-6.934042992,-37.00865383,-3.083621628,-26.65990085,18.77854665,1.940915991,19.70757002,-31.58936823,43.86312346,-10.88804364,16.58425165,25.73426119,-6.892342653,30.8477803,8.241129455,-8.924869813,8.854851176,-10.41014502,-6.450980086,16.72991425,-14.01282743,-42.63598329,-145.3941043,-7.904765698,11.76555945,-29.66184426,60.76068056,34.51568466,22.03538859,-22.70691153,67.36360517,23.43514268
-2.430666904,-31.29539684,-0.377374909,-23.67389572,25.23598734,5.386092058,23.24594055,-28.0515295,43.80999156,-8.558783675,16.62055442,24.12547327,-6.74191166,24.95355556,4.155916168,-7.387474379,12.503299,-7.382364018,-3.934039059,15.47887843,-17.53114548,-45.73184718,-139.3747609,-6.128846029,9.314232846,-42.47185398,54.61849619,32.48072416,20.27416822,-20.83705379,60.32903429,19.37659999
-8.246094895,-52.34455785,0.052374839,-36.25767114,46.91405838,10.35529687,42.19784902,-40.35558277,77.46687557,-12.37711165,26.54252471,35.04528236,-17.58441468,28.65283499,-5.09135917,-16.28025749,10.11979132,-19.22753072,-6.863260012,27.72486587,-29.04974297,-71.4175071,-233.5993035,-4.055726504,18.91525994,-38.11590919,97.39675448,57.52801428,34.33496195,-35.46524595,95.01208237,18.07244862
-10.81332343,-62.34871383,-0.684111164,-40.29918641,48.89663299,11.11387437,48.62962866,-45.08660166,90.03205153,-16.51316098,31.88681518,34.76691434,-23.35599485,37.20576011,-3.933459384,-20.51382416,9.107261438,-23.01774884,-9.125612677,35.68058117,-32.86554297,-81.96471269,-277.907444,-1.804960916,22.94792994,-48.85490889,119.3206314,70.90259157,42.20946702,-39.59055748,114.3940995,21.58562521
-1.223008611,-39.72250918,3.183244133,-29.26972963,38.13399602,13.02321439,38.95020358,-50.18292297,62.8114053,-10.95724958,23.14142574,16.53023187,-18.55771918,25.71678734,-1.596516771,-12.12630508,13.79947037,-10.49566461,-1.137214203,30.7260409,-23.03507144,-62.5358452,-203.2414677,3.78178583,15.13215367,-65.75988987,84.13451803,53.14164813,31.10983391,-29.86630098,87.08059853,19.3108573
-0.235054028,-36.0751611,7.573310627,-28.29290842,43.77369185,18.66727465,42.72460209,-61.91318953,65.96835881,-11.17932479,21.79739604,14.12082673,-24.18242567,19.22495938,-7.357002659,-14.32772832,14.74674461,-7.04019723,2.077164906,35.51528727,-23.49822044,-62.59394252,-211.1606615,8.14572238,16.05236139,-59.35317327,86.09001812,55.15276602,28.79347639,-35.70286609,87.623946,14.86394835
-3.695765147,-45.0172761,8.455990157,-30.63657006,44.0898554,19.91109563,46.06686142,-57.26385569,73.85679276,-14.61807103,20.64546218,11.16259837,-31.17731335,26.34116955,-10.19464668,-19.9791281,12.24865014,-11.19237358,0.80133751,39.84625897,-28.13260853,-70.14541728,-238.763171,8.031389116,22.44307158,-40.71882226,104.0132016,63.34797147,32.60005614,-35.77072502,93.81227977,9.631702147
1.69766416,-31.59871031,7.843010471,-22.69475016,27.78813163,14.69577505,31.84401857,-48.6519721,47.99286168,-8.708063401,10.68743257,2.61254483,-23.40748703,18.9682756,-8.218198089,-12.86432217,12.9386862,-7.486951146,3.212250445,28.6868952,-18.62625311,-51.02164476,-164.7037366,6.075623114,18.66073923,-32.49321279,76.00314846,45.15188573,25.19402853,-19.54386909,64.72619367,5.240005611
3.327478308,-19.25700533,7.382735746,-11.09511747,23.68786466,9.474124073,22.20445192,-38.75336489,38.99804216,-11.00779488,10.3072894,9.602421584,-22.05776894,9.518267332,-6.446040795,-14.89780461,14.27070146,0.601449337,-1.892226272,25.5738589,-9.576752385,-35.86069535,-143.7317007,2.338725078,9.899963518,-38.62990992,60.94098878,35.69569455,18.54754913,-19.56910583,58.81319273,11.59048874
0.26290028,-19.56859551,5.012063994,-6.968332324,25.21173653,6.977732019,20.05943935,-9.948049975,37.77508043,-15.22309184,8.516143441,5.960294763,-23.88307832,13.00882608,-2.821644585,-19.96725443,10.68263232,1.63231568,-5.729015925,25.19717508,-10.9487492,-36.77057593,-145.5310965,-0.374201818,6.55351414,-38.73664345,59.29766656,34.58493596,16.14776447,-20.33212474,61.8208616,18.10137188
2.065970169,-15.69861072,0.768538945,-13.79131064,11.0542126,5.640249351,11.40489449,-5.075652569,12.72591624,-2.668049993,-3.440419437,-7.931289557,-9.934328935,10.28917657,1.043922867,-5.908748932,4.035198171,-4.822500222,2.391610254,10.85153712,-11.02177319,-28.24969681,-58.15676383,1.513880867,8.92246828,-24.46447231,31.02256155,18.79653739,12.27073372,-0.326149067,33.03392908,13.65842856
2.096000175,-9.509767711,-0.851251079,-13.42107507,-0.17256542,2.562790455,3.251198165,-27.19907234,3.613627495,0.241324089,-1.364981369,-0.780240865,-4.410938801,2.118900991,1.480463018,0.011210434,1.429619329,-3.376008942,1.520033058,6.870596125,-5.320165886,-12.12114994,-26.90413272,1.297826374,9.455868579,-14.87855686,21.29019832,12.72749324,11.20843347,7.181078317,22.24673864,9.706506735
-1.420544076,-1.886419319,-0.737908012,1.817689977,0.812142891,-3.569088231,-1.847636837,-7.115764947,5.046718144,-10.08863464,4.631906864,0.216047567,-11.12043059,-1.558445056,-0.318292569,-8.571923153,1.350405442,5.688646587,-7.563414949,9.504523892,2.624705062,2.367742281,-43.33270899,-4.271627662,3.442337885,0.093161688,21.51539271,10.48456045,6.902401657,-0.739252652,21.63582448,6.007884093
-2.411325374,8.294810757,-1.673183586,8.754131222,-4.418281589,-7.043778009,-8.898031458,25.28319733,-12.46032071,-3.436440148,-2.419108399,-11.13829595,-1.045758704,-5.654059543,-0.570585835,-1.108028425,-2.66182703,4.517103366,-5.380562625,-4.836256473,7.206956111,11.65078114,21.87396131,-6.339920614,-3.700091248,21.68606573,-9.84324279,-7.686931925,-2.585653134,3.808785285,-6.988097483,-0.776011192
-2.280353232,12.61526276,-0.2574996,5.350577166,-14.61905009,-5.060423561,-12.212248,16.80606655,-18.47353964,6.735160236,-2.166153128,1.743548089,13.33624199,-7.14764707,2.214707949,9.460007348,-7.387110117,-0.414072962,-1.369725567,-14.81592687,4.045848799,10.98119587,67.55213188,-3.231179263,-8.064133946,14.51116692,-29.95771583,-16.7638743,-6.699055355,9.686514214,-22.6016438,-1.51707742
-2.354001607,13.30846378,1.871108631,8.616864963,-14.75459099,-4.477898652,-11.83665301,18.01666547,-13.88316212,3.589138197,1.754739437,11.92310368,12.89306482,-6.480487467,3.113932018,5.004108571,-10.0330038,1.425726399,-2.374316428,-12.21730463,0.975503117,15.15935123,58.37368459,-1.978208084,-10.05734992,4.029218429,-26.92492746,-16.49363246,-8.933274664,8.356081851,-22.59690498,-3.015038902
-1.878966402,16.10357559,0.192440256,13.04875122,-10.95100014,-5.724973322,-14.19971386,30.75786907,-26.22398033,4.971428021,-5.836867111,-6.043931839,12.18741751,-10.0635855,1.667035753,5.201891809,-12.04680237,0.707229287,0.158905713,-16.54020882,5.070787398,29.7263019,86.50477241,-1.74960931,-8.964924691,24.43492725,-36.16599089,-24.7307919,-13.77067704,12.54305851,-38.38768587,-9.99668231
-0.205564498,20.26014931,-1.913822018,12.67742556,-19.53642191,-4.655762794,-19.22384296,17.18249916,-38.03040598,12.05542733,-9.667109759,-14.42318722,16.20343029,-13.09021204,3.823595855,13.62820594,-10.4045635,0.272039716,2.722267486,-21.97041914,10.47797144,38.38112143,124.6127285,0.705932115,-8.64494241,37.68610664,-51.96111691,-30.50109545,-17.32448378,14.97469671,-52.62204857,-11.48859854
2.878035108,26.03173666,-2.73121026,14.29430569,-32.10703446,-5.725486184,-24.32937259,19.99989196,-41.27975234,12.99046278,-8.478102243,-11.92979331,17.15030481,-14.40990757,5.778705439,16.26327525,-7.42742559,5.680072677,2.821318057,-22.53649788,14.01622248,43.6395459,146.4025643,1.759836137,-11.62367572,35.23354713,-64.88887918,-34.48536267,-21.85709055,12.43392908,-61.84600894,-11.71815403
3.948243251,30.61616893,-3.810367838,19.97305642,-29.69888228,-9.143639035,-26.80276592,37.91639046,-45.90334537,9.263669515,-10.8098857,-21.03978102,15.37709862,-16.62614959,3.866919057,14.20879953,-6.90090019,8.679046514,3.109491518,-23.08433812,17.13226667,50.36308152,156.5917585,0.198761498,-14.36793317,34.0648641,-69.49423429,-39.92142586,-23.89223979,18.2596535,-67.72261963,-14.35076181
3.061085972,31.43577202,-4.906067612,25.76173481,-24.29753716,-10.04390363,-27.54304627,27.10395799,-46.12023678,6.357718558,-9.532930543,-20.79192878,15.15214457,-17.04652136,4.435798862,14.00769029,-5.880505006,8.921033187,1.235339796,-21.71523032,16.61409596,48.28856219,141.974047,-0.263955744,-15.97668955,23.8571286,-61.75773115,-37.72882158,-19.62622928,26.27771242,-59.41668609,-11.83580135
2.734186755,27.62979276,-6.650197106,22.8693625,-27.96770448,-10.73781909,-27.26334539,23.43459297,-43.27963589,8.449867103,-9.932634802,-9.058664873,17.69636647,-17.13858874,5.367163942,16.21492965,-7.953681944,6.765198305,-0.042382508,-22.88246063,13.09051726,40.48781671,137.4656192,0.615224521,-13.88605769,27.71260301,-58.5182832,-35.10316704,-17.07574756,23.32067974,-55.60636817,-10.75718177
2.542328185,20.71778022,-5.807262511,14.20913188,-24.78365372,-10.16088503,-21.84874884,34.84072626,-39.05061907,9.931109925,-15.4204718,-9.64128383,15.64120756,-16.90849781,1.643759785,14.81399787,-11.59274354,2.688584983,1.80054047,-23.34809445,12.74471624,35.08562673,133.237024,1.144485752,-7.941384943,44.52104494,-55.21471759,-33.43413841,-16.62882873,16.6830077,-56.15092066,-14.31282154
5.265091307,22.25523088,-1.898456261,16.1318303,-17.79938661,-6.364019988,-17.38601834,22.74627188,-33.31338914,6.020438794,-15.13038526,-11.6573594,10.30367399,-15.08974167,-0.270712828,9.14742454,-5.370824635,6.985879596,3.126234162,-16.43375321,15.4088441,33.50906647,112.388255,1.305214472,-8.20624498,27.39675183,-49.36562552,-29.82627442,-16.29295715,16.31606787,-49.8533597,-14.04776603
7.941927937,28.18790753,-2.234294738,21.15048006,-17.09869117,-5.292952775,-18.67124099,10.63065167,-32.70127982,4.572887269,-13.01385119,-7.056077717,10.00242805,-14.46737437,0.538201259,5.835420089,2.057016682,12.98734215,3.146340336,-11.99955577,15.53713831,34.68240359,112.0257776,0.547961465,-11.41161112,10.5862989,-51.43664244,-30.06963315,-18.38766247,16.97264016,-50.84068743,-12.72126789
3.026529103,17.50469946,-3.549455279,10.89792619,-8.421525981,-4.583785866,-13.34175531,10.21591635,-25.76050726,3.931185357,-13.1742299,-10.74356333,5.523296353,-10.15578571,-1.98338233,1.692902508,-1.091992333,7.795856123,2.549645487,-7.689651536,11.50775136,26.93829869,84.368769,-0.344181209,-3.793686096,32.67652603,-33.93332673,-20.91309279,-14.66332536,10.72490325,-42.37845545,-12.83250278
-1.051490002,1.873482339,0.87264452,-0.641429032,1.092838719,0.83085533,-2.527507435,2.416783112,-7.681930658,0.961292445,-8.406384903,-9.631690883,-1.336830767,-1.223777439,-4.189234065,-3.099408433,-2.526788414,2.348169528,3.140022549,1.247770249,6.495353203,10.05027432,21.59999021,0.470392089,3.630217845,27.27078601,-5.6992115,-4.281548462,-6.686299332,1.934900518,-17.64557044,-9.606671221
2.203392874,3.633410355,4.971689537,4.844254353,0.41639722,4.771994413,1.454229703,6.081107947,3.416698872,1.53559018,-1.37848863,7.37530226,1.980866203,0.953890509,-2.323102878,-2.300132761,2.330933958,4.002780949,4.819283296,3.024678063,3.032081985,-0.484953571,6.327954976,1.213393228,-3.298503918,-25.39186941,-9.007986206,-2.943604428,-7.030734413,-1.907191406,-8.23032584,-4.093037424
2.817712669,7.445818915,5.160406681,11.25481001,6.607433161,5.343320984,3.896588458,17.03431929,6.48930287,0.698496242,1.418671915,11.60633869,2.106218856,-1.73554386,-1.114548214,-3.018653643,2.893550617,3.39320589,3.315636493,1.379046497,0.237982924,-6.292033939,3.424985234,0.069988365,-8.735797056,-38.65901531,-13.07657481,-4.800246828,-8.477800662,-3.895676739,-6.324871148,-0.463072551
-0.394184313,-0.816896729,2.268614547,0.216204303,9.866018051,4.597853811,6.917466128,8.858629953,7.831809163,-0.445827759,0.396244551,1.936790076,-0.973835539,1.797023922,-1.722952783,-4.189321422,0.701328155,-3.356486857,1.913305783,1.558127864,-2.675515057,-11.18576147,-12.08143745,-1.070544417,-1.239034708,7.734049024,-0.038627147,0.009002569,-4.003965286,-9.975154718,-1.090221619,-1.342700629
-3.62072554,-11.51115124,-2.212014269,-13.05415094,1.593255407,2.263004809,8.166473581,-10.48140792,12.16605712,3.283012759,2.868401519,10.24299675,3.864980824,8.103168563,-1.622425102,-0.657994564,1.664366468,-10.04622784,2.532419099,1.594420255,-5.279419157,-13.07029841,-18.40830251,-1.012648198,6.116673653,25.19989378,7.324199907,4.620966751,1.850660747,-17.16845236,5.619853508,-0.929587433
-8.496032863,-19.25125709,-0.548819903,-13.11979693,10.25665359,3.734860709,15.50958796,-25.99226902,27.06780616,0.206230472,11.2114874,21.63755089,-2.441306426,8.912728737,-2.07402817,-4.110833641,3.792209828,-8.94263254,-0.441377947,10.48237504,-9.297116832,-21.99574534,-71.94160313,-0.139446465,7.98603746,-16.3140402,29.76199481,19.5490929,11.56189034,-15.85218104,32.47814744,6.809833818
-7.479286103,-18.89368198,3.848179939,-13.57231607,22.2355317,6.682667265,20.37465913,-15.15646938,31.88924992,-2.399503197,10.53285837,10.62239259,-11.42873888,6.547611531,-2.477226115,-6.627533263,4.34474496,-5.48335384,-1.231196533,12.99353441,-13.89103608,-32.16868787,-98.67394362,1.09790739,8.650418601,-46.53018355,43.8038631,26.58340863,16.58341727,-5.511268255,44.15596896,10.57801098
-0.627874041,-10.74018333,2.473539455,-16.9932337,12.27290819,3.973522014,13.545986,11.65890335,20.06900593,4.227973161,2.656075538,2.152977296,-2.273971667,7.778234648,-0.565458016,0.996677048,3.67310556,-7.642239682,1.918570277,0.020990776,-13.03822616,-28.38698663,-40.67372597,0.84033764,5.906660177,-40.48391823,19.36743948,12.28146287,9.745688056,-1.900958265,20.35037323,7.416344999
-2.416171409,-12.18332993,3.267296028,-12.09454093,11.06891033,3.841190161,12.24814872,-5.156986031,23.64744655,-3.159596043,6.862728857,6.12573447,-6.292759488,10.4311202,-0.140924323,-4.268976487,3.987027187,-6.435856564,-2.228366639,5.900969045,-8.569382451,-23.15350727,-68.1386313,-0.844368019,6.101762024,-27.5758978,29.16817735,18.50169452,11.38994038,-10.27605944,30.512553,9.880655279
-8.485363005,-24.07072203,5.722068842,-14.13192038,21.88610241,7.766609768,18.45129305,-42.84923458,32.63773245,-14.90714401,11.51474378,2.339583696,-21.60597404,9.858862462,-2.134263756,-14.17989275,4.231316081,-3.790484156,-6.204218358,21.82843453,-8.673637188,-25.75430757,-144.9363587,0.005256649,15.86561049,-14.68870123,70.05900198,38.68890278,23.66523505,-13.67654923,62.68967409,12.87834288
-6.641309307,-28.42692624,0.568050228,-24.68937124,17.08185455,4.591743597,16.33564878,-41.65013299,24.43505838,-7.579819048,6.926643837,0.069330263,-13.35424345,12.67318819,-0.131339233,-5.769942418,3.931679276,-8.265032635,-2.545446451,16.32192617,-8.933443673,-27.33103929,-112.846494,2.47913739,18.91477318,-15.7808398,61.46305653,32.86497702,25.26339141,-7.389075161,55.84570834,11.56828778
-3.583166274,-25.09945439,-3.914605187,-16.91999767,10.65320811,-1.872633873,9.674956386,-33.12464913,23.1122752,-8.622519728,9.948285648,5.723672209,-9.635396886,18.01010262,3.729173875,-5.142550603,5.900182408,-5.047222126,-5.96984415,14.93372143,-4.251608742,-25.36500426,-97.8415468,-0.296471436,8.570075999,-15.12660744,45.14370303,26.09322628,20.19194548,-5.020319896,50.20748907,14.94158084
-2.976404639,-23.61701157,-4.446602299,-5.932601192,10.05038755,-3.604425145,6.558923793,-26.93875765,27.97491944,-17.05114604,12.13495054,4.824980946,-19.4741343,13.67160989,2.735397732,-14.34025279,5.122547779,1.407697105,-11.51707404,18.95063878,-5.853796208,-21.34862009,-122.4460185,-5.176607519,5.132834987,14.01309387,53.52083495,27.86708456,18.07659238,-8.3122914,53.77516006,17.21808905
0.719805334,-22.86342414,-5.724895132,-15.7790886,4.809731841,-0.636653182,8.611853977,-6.162000293,20.79803947,-2.599590145,4.139750338,4.503567748,-8.274730809,7.638599042,1.431599835,-4.168540676,0.674272613,-7.843022666,-3.161285673,6.893681559,-13.74007902,-23.14812172,-67.78077402,-0.939043021,10.93879881,2.366834119,37.14272965,17.96934795,15.11134873,-9.21570494,34.04579474,14.24119828
3.304783277,-18.74511362,-1.064687856,-19.12819507,6.094651944,6.239637193,13.74339556,-15.868679,16.48931615,4.714439779,3.940897814,4.529113408,-0.341860035,11.46676408,2.951928659,2.937819335,2.304582046,-10.74314417,4.546331388,8.076959879,-11.6599685,-28.48774695,-46.19760759,7.16421542,10.14270301,-46.65814669,23.08002562,17.72748776,13.9782628,-7.663365077,30.09136231,13.03383716
1.686508975,-10.27954718,5.118068658,-6.497238932,8.971261844,8.98698758,10.53589802,-32.95865705,12.44955133,-8.902541665,5.72295249,-5.529367717,-10.46194835,11.80378601,1.643935629,-6.638152268,3.97217487,0.799921692,1.578434891,17.57469162,-5.645230524,-17.35197162,-71.44943587,5.722445039,5.509014019,-21.75432308,29.68704068,21.73583192,11.018641,-7.850228431,33.39834466,7.403151765
2.308525149,-0.532764042,4.534075589,-0.512843219,3.386577131,4.689200356,3.672487091,-3.496520558,3.399055961,-6.413273353,1.012993396,-3.634670292,-4.445257723,2.571534856,-1.947517,-4.392458053,-1.767683773,0.130213063,0.642255986,3.655761051,-8.832396944,-4.096628107,-25.34707003,0.381509496,1.184469216,16.45593936,12.19321047,6.433257277,1.5801973,-9.428463005,8.568702444,-1.952419091
5.43417244,7.640747384,6.06256887,7.827446295,5.352749108,2.043717389,5.639836261,12.30815466,7.751427404,-0.314109629,6.567576531,12.66557397,1.945297946,-3.582984287,-3.224072381,-0.3808966,-2.460140455,-0.712912131,-0.72937106,-2.125558702,-7.679964626,-8.584412894,-11.5333544,-1.30782398,-9.044031916,-11.49553816,-4.355507762,-0.127066287,-3.440030203,-8.666508319,2.790329423,-4.265313885
6.308528012,14.54720614,7.099014347,21.5848121,9.071446456,-0.639791944,3.027580183,-0.192861664,8.997827643,-8.397763556,11.95062309,12.35289226,-5.746777587,-3.97920349,-2.67648165,-7.430965414,0.760962579,10.48576232,-6.775049367,5.538107337,2.173181281,-3.351069436,-37.02863575,-4.977488553,-16.34609003,-6.696340601,-3.200276376,1.448109536,-5.265459243,-5.032170033,8.323887172,-5.933515758
6.607198872,15.4773104,-0.036359002,14.79738237,-1.763450831,-4.414484099,-7.631386378,16.45775622,-8.655580661,-1.111979459,0.400041545,0.775473979,3.837078147,-3.219005148,-1.247830488,-0.880883935,-2.416263798,7.07099786,-3.84697281,-7.596646472,3.529661231,12.90981131,32.31078238,-6.469378629,-10.29616726,21.31775635,-22.41530153,-14.64256121,-10.4875159,1.133126273,-20.72436662,-8.768242707
6.356146305,10.26523327,-4.34671261,-0.642962885,-11.74150528,-3.177056938,-10.6701567,27.1417441,-18.65774722,10.52778815,-7.957347201,-4.434097234,15.09292851,-3.064899888,0.67783585,9.677671007,-2.82983274,-2.093163491,3.561091908,-15.96854571,1.609424325,14.9146772,85.61802206,-1.136028784,-3.058447122,0.850797156,-33.97795684,-21.74619244,-10.0081531,9.625795254,-35.15031988,-5.258029049
1.223648776,9.597850376,-4.204473586,4.209966578,-11.09743279,-3.921466303,-12.0576159,11.20119434,-18.95671057,0.269787788,-4.563048561,-7.900767022,4.828256477,-6.314783254,1.667105277,2.918596496,0.106555685,5.732958253,-0.497246254,-4.987752677,8.563704423,20.90781651,48.28459688,-0.906628125,-4.767360726,9.663715776,-18.24415461,-13.2652708,-7.500953696,13.1604224,-20.15574946,-2.9947617
-2.989990006,11.24712967,-6.561686043,10.69790987,-10.03237628,-7.466169608,-15.61303897,13.28372371,-23.45111073,-1.895948397,-5.211837394,-7.044833454,3.327134488,-10.32367628,0.947019517,1.735120739,-2.758574644,7.452436277,-3.153182199,-8.020007238,11.47510138,31.04955609,54.70965606,-4.438922884,-5.16155469,38.34933526,-20.68630511,-16.69699369,-11.16360351,10.97281696,-26.80902419,-5.768104704
1.026613198,8.838712091,-5.279404462,3.239922535,-11.97937909,-4.756141991,-12.40448826,15.14431077,-23.31917722,11.54214808,-10.29468882,-5.782453966,12.17919028,-9.753081591,-0.786237496,11.6337646,-2.780475407,-1.174914727,5.170257705,-15.42620925,8.03509001,21.84412904,91.8668247,-0.444869932,-0.525732171,14.98491641,-34.19982832,-20.70971024,-11.34202697,13.09301485,-40.00017949,-7.639894868
4.260728739,13.31066126,-0.417215609,8.591234666,-13.50890411,-3.914213217,-12.08026012,8.248708761,-22.14462004,7.213913092,-10.73780522,-11.68851784,6.21574864,-8.492034737,-0.624286818,8.106082894,2.20494436,6.009232221,5.083743888,-7.477859674,13.18225659,19.28014559,76.89363712,1.274923367,-4.301992195,7.58084369,-32.52978015,-17.5510003,-10.5929913,14.34200643,-36.23559566,-9.50173434
0.683589951,20.78523298,1.069462521,22.87452105,-11.32831324,-6.890469804,-15.58795523,22.19318752,-24.85573399,-3.730244502,-8.655953343,-12.39928748,-0.455076591,-11.41348559,1.485637077,-0.418912683,1.457175823,14.97391444,-1.999398199,-3.727859786,19.27297712,30.84405933,63.31028839,-3.286782991,-12.1368311,22.15884572,-33.81708792,-20.71285107,-14.99684676,7.740982436,-33.89993212,-8.536851972
-1.27648869,12.39542534,-0.246525018,8.600895991,-10.41579118,-2.998634316,-9.403906055,23.37955857,-21.08643117,5.484470518,-11.62300607,-8.999786972,6.199299038,-13.17028512,1.406562594,5.59778565,-2.275528616,2.748166575,4.054967984,-9.874684222,12.1112516,23.4852156,79.79716127,-0.020623002,-3.438666057,4.094056946,-33.94858813,-20.33918089,-10.97692465,5.831832399,-31.41747694,-3.674122992
-1.812631836,0.997285128,-3.714902855,-15.04907603,-15.69375636,-0.035615486,-4.077971535,-1.250783342,-15.57840557,16.61268837,-14.51758952,-7.174076497,12.77158263,-9.921238328,-0.661196981,13.64473863,-3.817766992,-9.914696436,11.08095602,-13.87393714,2.172289767,11.44889776,88.55679517,6.947702497,9.864771573,3.853240578,-23.74353263,-13.80270982,-2.033612817,9.662562822,-27.25410232,-3.685908436
-5.693174414,5.177497115,-4.165997158,-6.542682581,-14.92313882,-2.219384514,-7.482486946,-7.276890304,-13.35496399,11.74602155,-6.349920366,2.838252495,11.55645398,-8.790645333,-2.642085406,10.11505058,-4.738881442,-4.549522569,4.674785627,-12.03681789,1.461109305,14.48616791,74.7129241,5.864399325,3.909075856,18.04414407,-21.55361207,-12.7758812,-4.05033743,8.591332737,-27.25778444,-6.773007777
-6.448283998,9.499509551,2.818767079,10.40163913,-4.11558783,0.670612694,-6.057078719,3.304988392,-9.160155034,3.517231833,1.365812516,5.36996783,5.070668003,-10.93679271,-5.124662273,3.052024009,-4.059992665,2.599730969,0.312245378,-4.793714022,4.726370034,12.65163071,43.06681251,2.989977914,-5.003236613,2.896596913,-20.76053472,-10.01426966,-7.421604019,6.481080662,-20.39916262,-6.500591249
-2.822875158,4.574121414,5.901128186,6.675780405,0.851476762,3.196679813,-1.49909577,11.28882631,-8.339824772,1.233305382,-4.107639296,-10.69539588,-1.623737223,-8.061975454,-5.656116567,0.686922434,-2.718852241,0.03579848,2.841795513,-0.635614039,5.791791694,7.934705977,19.80640308,2.944512192,0.362883023,6.976853418,-9.536181793,-3.405850548,-4.966802601,3.406588466,-12.94853322,-7.491077974
-0.054723855,4.38588915,1.106671725,2.901419975,-3.806433274,0.352003962,-3.227275433,14.39772826,-11.47132591,2.41309326,-8.343963522,-16.29996921,-1.923593547,-2.707013111,-1.95516616,2.130895985,-0.438447429,-0.819743108,3.177611231,-3.156417698,5.904716838,11.22304387,24.51594516,2.951335157,2.943412286,24.81430507,-7.505179127,-3.500943322,-6.590047345,-3.16337833,-17.55486993,-10.69958162
3.316431637,9.712180756,0.972518445,9.64260826,-5.711329697,0.955283116,-4.450274623,4.329973519,-8.617093765,3.892323131,-2.908104846,-5.401777894,2.894610886,0.127130203,3.518353993,3.013471842,3.403906204,4.846461633,3.36697726,-2.826086733,4.513968226,7.626414285,30.44466073,3.526867034,-5.345622964,-0.129939652,-17.93534645,-6.829060873,-9.125490678,-3.83286632,-18.38724957,-8.603897098
3.831201572,7.853624507,5.297399218,12.9762532,3.772857127,3.909613206,1.460811457,0.478518568,3.541336696,-0.018991473,3.924603455,3.604348027,2.335524446,4.705025521,6.574613888,-2.554340019,1.264349211,6.556338615,1.372239952,2.44156601,-2.072834633,-5.684193728,-1.293883925,2.075902681,-11.22004212,-30.60408115,-12.57802134,-2.957959816,-4.830151326,-2.729709647,-1.611871007,0.179952824
-3.729349449,-3.443806348,3.29975631,6.980093123,15.94059399,4.100045413,9.265371396,8.87549413,19.09001049,-7.610968223,9.54360361,11.08055251,-6.140216283,8.259333578,4.017417901,-11.096866,-5.909553493,1.024266216,-5.273914182,7.380584203,-10.03382641,-15.20391218,-58.36438422,-2.177220018,-7.272478436,-20.01930157,16.0638853,8.419096836,2.355571175,-7.226328836,21.24008221,6.566367263
-9.754278629,-12.77627194,-2.444609624,-5.135349833,12.55435419,2.402516085,9.499903516,-3.337945642,22.31425433,-7.256697422,10.75434709,13.31428356,-7.093563616,9.370414912,1.641172577,-9.637628489,-6.531098465,-4.231064877,-7.44126604,6.981296944,-11.02544926,-15.57663423,-73.48883351,-3.579260935,1.31453552,2.12241485,32.61226095,14.84829402,8.073231197,-4.79978097,29.99566745,6.3107863
-5.931358882,-9.013174877,-3.370976053,-9.437545708,-0.713226492,-1.505665384,2.117273523,-16.86727417,9.605796623,-0.454971723,6.86120261,7.026228593,3.953364875,13.41883086,5.875068458,-0.221121723,-1.826700013,-4.720528211,-5.063273735,0.484242396,-6.928193917,-10.04111234,-32.26081788,-3.003921126,2.465846879,-2.197648544,14.02311724,7.74419185,8.517761699,2.594167073,20.6070582,8.2633599
1.0791001,1.018508314,-2.257435644,-2.315593761,-6.229303582,-4.037420448,-2.644123927,0.393446639,-0.770445475,1.682600559,3.179632775,4.385354725,7.509597652,9.272306896,6.289383797,3.395506183,-0.281136881,-3.024342773,-3.288793456,-3.513746217,-4.001889219,-4.813732585,4.534801002,-3.999577138,-2.254967916,-11.43595487,-7.508265715,-2.00752928,2.88971165,1.045585326,6.640790809,11.06793246
3.86278075,3.36731367,-4.42999513,-2.874317655,-8.490765109,-3.033436104,-2.918553957,11.8396712,-4.317879957,1.856258568,-2.308990767,6.385547442,2.359304536,-5.338881539,-1.176087688,2.91063395,-1.67506203,-4.082122905,0.307903426,-4.866650229,-2.077661944,-0.77854504,21.56081838,-3.407339659,0.772376073,5.279837732,-5.842892292,-5.17098041,-0.21822078,1.536549696,-3.973746739,4.943134512
2.148087764,-1.721230866,-4.328487361,-9.745056647,-7.710299955,-2.591017408,-1.872122564,-3.86879783,-4.475097888,2.316687969,-5.148295453,6.803653927,2.033448187,-5.080915834,-1.674539178,3.077068181,-1.245846806,-6.066466455,1.769709688,-6.421716745,-1.784180328,-1.040498853,16.70110165,-0.853410231,5.481882206,9.499873325,3.988311917,-1.590289107,4.298128469,9.112780365,-1.620650685,1.608186545
0.287762648,-8.647094921,1.106270781,-7.539247997,5.008814356,-0.777868154,3.753858643,-16.35318215,6.143608675,-4.757083659,1.496802946,1.478226006,-2.953989395,8.251593355,2.366780398,-2.567437412,3.181881483,-2.869416741,-1.681352632,2.962056093,-3.921091256,-10.95346169,-39.64264259,-0.27582072,3.955715279,-9.143940823,19.20077082,11.53385173,10.51494656,4.21492915,19.61464164,7.011119591
2.420520926,-11.77363959,4.146917725,-4.672587439,14.85467285,3.384648573,9.651968946,-11.52696818,15.55384392,-10.59097658,4.988227823,-8.532069338,-11.11336535,7.994793271,-2.557853549,-7.768879691,6.517619744,1.517499996,-1.832233329,14.15069153,-4.650333387,-16.74986029,-78.46748896,-0.527350721,5.78406738,-2.795008492,32.66054066,20.49682383,10.22223863,-10.90367437,27.68821715,2.428996317
5.436056503,-6.733670126,2.954255014,-7.130944296,10.21859335,4.258400835,8.562117055,-4.692845093,10.05028592,-2.254403629,1.525022148,-5.007076588,-3.200155051,1.34094729,-6.644980702,-0.806741152,4.277553488,0.198291475,1.520783168,6.284523554,-4.427050357,-9.845465674,-34.68664723,1.032317809,7.160668298,2.225029245,17.12866632,10.80122035,3.564696191,-14.0966739,7.387969622,-6.400743847
4.378128143,-4.391652917,1.42468438,-8.681797022,5.105639758,3.129727097,6.468469449,-12.73568234,8.409430465,4.18450656,3.851601054,10.23250732,4.600483901,4.708345341,-2.065388271,5.029944716,2.169752576,-3.179829889,0.800915688,-2.215628208,-5.962818013,-8.556308063,-10.28294868,1.671404528,2.130280087,-11.18422068,0.451678792,3.955655617,1.844325107,-8.213051138,2.760624478,0.161220164
1.81841454,-10.63298956,0.049136763,-9.510952032,7.462789796,3.326263331,8.108382459,-22.01862164,17.19415666,-3.194749789,7.95569855,10.74238374,-5.430757396,6.739677215,-0.61110982,-2.414510719,2.715898565,-4.580643577,-3.027482239,5.193309471,-6.188574958,-17.01243598,-54.14525139,-0.632828688,2.367075924,0.555554638,19.31463575,12.55882913,8.436876369,-6.516059021,23.62624246,7.751641451
1.205952139,-12.61118145,0.646495716,-7.300889103,11.25418531,2.214958909,8.936881321,-12.46172357,16.93295587,-6.848283363,6.09841369,0.813645116,-11.21498046,3.765283868,-1.708536453,-7.801427284,2.096559743,-4.538213468,-3.922165815,8.635343896,-3.776727328,-20.09308706,-66.9749457,-2.315736716,5.823372309,0.570864447,32.74637349,14.88150213,11.74457369,-4.082158826,30.83794301,6.444751961
-0.131707821,-11.95664953,0.504224477,-4.566426449,10.2887617,-0.666374085,6.554966146,-9.967168292,9.132214077,-3.647099838,4.281974509,-3.341809356,-6.933916025,7.029513268,3.873407122,-4.001114099,2.811986033,-1.88747956,-1.928181622,6.27991996,-1.019980889,-17.51559322,-47.21388032,-2.084277703,4.294057932,-22.82403777,22.38849425,10.53621618,10.51740065,-0.071232124,29.27172419,11.9920682
-3.141389867,-15.33724214,-4.096396927,-6.706961925,5.170310185,-2.53241766,3.130934644,-20.84671327,7.851662634,-7.113064929,4.141895888,-3.021209105,-9.005065691,9.325806012,7.444737221,-4.110671369,5.174663708,1.708732443,-2.678097961,10.82224212,1.750994095,-13.42256317,-58.4060874,-2.508521242,4.88957094,-10.36568421,25.56334577,13.6546563,11.07761887,-2.80458134,36.13613045,18.25336693
-3.423323004,-11.34512839,-4.243755608,-4.607682368,4.604120401,-1.147681431,3.478779107,-10.19218252,9.580206029,-8.57624449,2.717803678,1.411118918,-10.93872458,2.168497078,1.230325124,-7.324642067,3.633828262,1.480049318,-4.45579644,11.56652801,2.959400895,-5.207899168,-57.29139154,-1.98994748,6.956581237,-2.851828051,29.60124393,13.09010775,7.971569338,-7.450092275,29.01877178,9.577388551
-0.848075344,-4.04713315,2.386641964,0.240255594,9.252001292,2.281242404,8.127518369,3.923961532,9.494032692,-1.620835709,1.049435965,0.856369044,-7.755003769,-1.546829816,-4.7902245,-5.419697634,0.525629754,-1.759971597,-0.727562612,6.637031811,0.538974437,0.866368126,-28.39717704,0.825421552,5.335715827,-18.18017777,15.89649445,6.208402073,1.662979086,-9.931223376,10.52682488,-1.611388535
0.6282074,-3.868092877,5.203113798,-0.282237777,9.710541095,2.952196077,8.578775811,3.867448559,9.583705379,0.015332103,0.770717932,-4.495165222,-7.180424781,-0.207421162,-5.695741395,-4.288470118,1.096138704,-1.483415792,3.370780462,6.943163165,-2.202266953,-1.543819945,-21.22555078,2.168603203,1.28408542,-2.046896299,7.870838362,4.550434827,-0.730392004,-11.40629491,3.122262147,-5.060154431
1.484366044,2.603341407,4.297066584,4.597476507,3.771555207,0.894971706,1.472960668,17.05145946,5.711367818,-1.65211562,1.570486181,3.345183003,-2.595230647,-5.873905105,-6.860505113,-4.353112391,3.297090689,4.937205523,2.833315955,5.032211155,-0.1965315,-1.349577032,-5.444833244,1.618144159,-6.585931764,-1.19136513,-3.732039101,-0.095951439,-5.035599518,-3.542233276,-7.459315067,-8.54995612
0.977610734,10.73364014,2.75716272,10.09229186,-3.71933012,-0.152935379,-4.854393483,13.24381233,-2.048280949,1.60728691,0.437885161,8.508087736,5.414837125,-8.429655658,-6.354412111,0.40760874,2.808468327,9.033670011,3.043252515,-0.451608082,4.162332612,8.700563409,29.41604192,1.640959032,-8.151156468,-18.11948586,-19.62378814,-7.276397166,-9.477615211,6.042405112,-20.003524,-10.36533376
-2.743749924,3.215786821,-1.439979448,1.912950093,-7.439694762,-0.153565974,-5.619653013,-18.23665349,-5.144683189,1.808014004,-2.481146265,-3.171802566,4.184212639,-2.131620112,-2.641180008,3.207208287,-0.773851524,4.455115244,3.450214804,1.000096476,3.585613789,13.091322,23.93720149,2.01861373,2.356331166,14.15850876,-8.074142889,-2.628906675,-3.936520885,3.066890988,-11.8379971,-6.992932463
-2.480692387,-0.236364447,-2.378159923,-3.39154833,-7.993637039,0.448649598,-6.075012121,-5.589462664,-8.583037995,0.576411606,-5.666645466,-8.36470299,1.297118794,-4.353331051,-1.107988833,2.009206693,-2.413077436,0.182368022,2.624708582,0.861558427,0.399834548,8.370850743,19.12191589,2.929462771,4.363092622,28.55848238,-0.820921097,-1.165815659,-0.38773766,3.645078575,-7.789350978,-6.591253181
3.70497431,10.87143421,1.286762307,2.102089918,-10.11349797,0.932025538,-8.254681433,25.75365376,-18.11786621,4.418479013,-10.94050482,-9.025256573,4.624100747,-8.483164282,0.244414927,4.72482542,-0.049122549,1.133322557,4.593597082,-6.594777359,1.640359584,12.26586735,58.56278726,3.524445274,-2.99867446,0.354706309,-22.82411894,-13.49948013,-7.317257904,9.795039252,-24.45533047,-7.859151713
4.922372192,13.96508113,1.924493737,4.053187609,-9.680122948,0.344510023,-6.82635952,7.341324317,-19.03980769,6.345784698,-12.1435104,-10.46930797,4.712783909,-2.823516105,2.662160057,7.254665955,0.432034143,0.552777105,4.980136092,-9.028972287,3.174925632,18.25977398,67.82295631,2.589106856,-1.579141811,5.482696594,-26.87050209,-17.13291121,-10.00636847,3.256868839,-29.43437871,-5.042739967
1.253251278,12.12901124,0.988267559,6.898454285,-6.743159194,0.995357916,-4.127291599,-3.37416348,-11.53739982,6.625617704,-5.611516971,2.544588132,2.543919687,-6.224929832,-0.12933094,4.930538118,-1.69262783,1.25855934,1.6974677,-7.573554641,2.644513626,13.43680013,50.66531025,2.636611234,-2.209820062,5.303432728,-19.23033203,-11.77452535,-8.103895281,3.043734769,-25.77987527,-5.483013399
0.482261393,16.22535423,1.193458391,13.43373121,-8.388288596,1.897767464,-6.057052266,17.06652795,-12.63013152,7.578570555,-2.536826915,7.269919723,3.546828982,-13.64503989,-2.930362326,2.833705978,-2.218306601,5.830399254,0.645547409,-9.416124354,5.483463864,12.34008037,61.06620341,2.714960967,-10.46366474,-13.99008417,-29.91296389,-13.16401143,-10.3605676,15.75605828,-31.30232287,-8.349092256
-0.78740037,12.51321016,-0.989053485,11.93360051,-8.812350451,-0.717738895,-7.406751802,11.71367368,-14.4617258,3.890824087,-3.209553974,-5.585281936,4.244598266,-5.194570073,0.94291192,1.820677913,-3.413580448,3.965063519,-0.416106124,-9.90103651,7.82217728,15.98495386,53.88249251,0.029005082,-9.317699729,10.45793439,-27.11356862,-12.77740607,-9.740678066,11.39347067,-25.85474987,-4.895341628
-3.62490265,5.856302378,-4.798343224,6.431331693,-10.1374234,-4.830962822,-8.322596024,4.371417508,-12.34093483,3.449025073,-0.744240204,-5.227030897,9.152835186,-0.175662423,4.361667724,4.214301426,-5.820598076,-2.382698987,-2.062483497,-11.09009611,6.682973268,14.93074008,43.98779591,-1.627889599,-4.184176989,30.31773756,-19.93869393,-11.59740227,-6.669189347,3.479623047,-19.30264531,-2.357780269
-4.785722792,7.453639191,-6.76162502,3.605564127,-17.63333121,-6.870010381,-13.13588513,14.70338839,-17.0505211,8.759426099,-0.416457866,-2.674248601,17.76364412,-2.727372989,5.935424192,10.84908073,-6.992915473,-3.331210937,-0.796347706,-14.60946521,5.674415643,15.99086584,68.31009043,-1.546896782,-4.489611257,16.55099517,-30.99833288,-15.84003052,-6.270921489,11.18728773,-26.16979854,-3.683115765
-7.568997124,3.56836664,-4.663378487,1.324344501,-9.878147813,-5.34170665,-9.367886665,6.976281007,-13.2390726,6.128463304,1.527231929,-6.596582255,16.50476005,6.41018425,7.820122842,10.77935421,-9.123965911,-3.850305353,-2.1487176,-12.10974439,-0.295936329,8.400723718,43.37053374,-2.799683214,-2.638472968,12.05695368,-18.73870165,-9.268235382,-1.753070162,7.394633872,-13.13418201,0.25483283
-8.979113245,-2.996129302,-0.847833489,0.959317088,8.215741166,-1.561865383,2.787408031,5.915873246,2.278385733,2.235172645,8.313532979,5.716840322,9.623198604,8.352914817,5.008407508,5.600134884,-9.799008018,-5.584568773,-4.60443108,-8.399663602,-7.798379833,-9.785017065,-7.809851199,-1.892446868,-2.756742642,-4.740689684,1.245256223,1.582523989,2.448860972,-4.37414771,7.450339229,4.195980459
-5.170176651,-0.556364275,-1.758482368,-1.677042379,3.741511317,-1.168442262,3.823027598,21.67850002,3.9459273,5.786619538,5.961554009,12.72466415,7.591919447,-3.970983515,1.715995558,6.003134547,-5.97828602,-4.148122392,-2.159078477,-9.683816352,-5.730203674,-9.47488371,8.389104635,0.215070483,-5.843049167,-13.05937282,-10.53086188,-2.152009051,-0.200976691,-1.550550854,0.108073918,3.127600026
-2.786015058,-1.030405129,-3.211062721,-4.730113023,-4.819288483,-3.84164102,-0.9226102,15.76018287,0.60085904,1.083057535,-1.875260083,1.274985757,2.055503544,-1.427964822,3.10528916,2.682283164,-3.296260115,-4.25558834,-2.594188104,-6.248503837,-3.334323052,0.06372315,11.12937559,-3.427879207,-2.357447945,20.29900383,-7.104887279,-4.569465324,0.131518202,0.833657574,-1.712915004,4.526379323
1.380527663,-0.176082204,1.74838354,3.97611488,3.727316915,-3.531260576,-1.425587067,8.093284814,1.792789183,-9.389174443,-3.754862824,-2.207359442,-6.473110687,6.671619781,3.086125719,-7.046597912,-0.387669241,-2.492210985,-4.392458169,0.226763457,-3.901923068,-1.739278591,-18.33147232,-7.524927632,-0.901774723,19.89315592,9.253086601,-2.391058223,0.728134468,1.332232692,8.43148121,5.725791266
11.41537661,12.09428915,5.41203779,12.26876837,2.771966322,-1.413378502,-6.692059644,8.360833978,-11.00210907,-8.096892043,-9.030352687,-6.754289748,-7.807678672,-2.618801151,0.922436633,-7.391323755,6.842961675,6.158722153,2.472141553,1.293224564,4.252302526,4.674828146,14.11670173,-3.848212536,-3.822209944,-9.52170556,-7.983200453,-9.240389923,-4.872544206,7.744756279,-3.632164205,2.925964616
12.52912451,12.41481839,3.585089915,5.642386387,-4.213830881,0.131386057,-8.293309368,-10.4053769,-17.72498555,-5.328366262,-12.83808778,-16.16386143,-9.57013852,-9.847281287,-1.617557266,-3.773574809,9.213721691,9.473077781,6.736167626,5.832546351,10.27994619,11.83005882,24.90743599,1.321113985,1.969706697,3.988758473,-8.462539004,-5.949721407,-3.089171132,2.988432552,-6.777651517,1.2116817
3.152235721,-3.126931426,2.955574415,-0.931276889,4.662343821,2.847306241,2.667771019,-19.79145595,1.302035146,-9.014818485,-1.526575938,-8.803434869,-12.7630704,-0.069338662,-3.89302249,-7.246900861,4.19662738,4.765838019,1.048574061,14.18907758,3.409753368,-1.756179059,-42.13175133,1.541664456,7.28751039,6.667639665,24.14832511,11.38926294,5.474824294,-7.715928968,16.68128787,0.383033833
-0.098348825,-8.716121875,2.650593776,-4.921465534,9.750234459,4.952600386,9.634456588,-10.79497681,13.69124501,-3.198722219,9.578237031,2.192637864,-2.721858671,10.59217385,0.17763037,-3.826461319,1.02946873,0.335888235,-0.073966364,11.1276284,-4.054422705,-13.9277631,-53.96851464,1.603240431,3.587478825,-30.16278007,21.98441534,13.79798295,6.259944934,-8.947466495,20.82096342,1.646048031
1.942027817,-6.429368478,-0.797883495,-14.22721448,0.524056289,3.695539299,7.557681552,-17.34800275,10.0162335,9.001837985,8.890157165,9.756858479,11.9341501,8.476841295,4.682091352,7.560103553,0.188405496,-4.850735006,3.668400361,0.095513089,-6.230936363,-12.13401926,-4.428180897,3.158961574,3.526967641,-36.02434524,-1.069882033,3.710200482,3.814645984,-7.849487137,4.827695447,4.361686681
1.675724909,-8.016250658,-4.336296017,-14.18132769,-5.578597816,-0.393908031,3.740458094,-23.0461865,9.44104074,7.253724898,6.273778603,20.44152131,10.23256609,-0.001154635,-0.239089974,6.316136897,0.263856274,-5.563649414,0.283571617,-1.980231712,-2.468320734,-6.390656351,0.589282162,0.286293018,5.467938576,-5.943570485,2.750258544,0.47753025,3.567126667,-2.038900678,0.9332113,0.184120746
1.637617239,-11.45546677,-4.643976021,-7.421085447,0.071497475,-2.832431502,1.63869573,-16.21017859,12.20233343,-4.205046596,3.649710283,15.54760371,-3.615905695,-0.683193833,-5.946770321,-5.775582439,2.838631173,-0.658915668,-4.257235162,6.636571016,3.614962759,-2.328211712,-35.67893742,-4.783995185,4.584050634,18.7622992,18.85919884,5.559438442,4.240338921,3.331853833,10.95721285,-3.635083171
2.428762732,-15.29009535,0.052972642,-9.168005813,13.14259591,1.380490618,7.096465437,-12.87692105,16.77335702,-9.176843805,-0.008852981,1.548400928,-13.85249913,2.61000758,-6.992255124,-11.59916945,4.932795514,-0.918310236,-1.326740331,14.21688188,0.346729565,-9.296650749,-66.59706614,-2.82396735,7.401667291,15.01579034,30.75497372,14.74862108,7.928802209,-6.590106657,24.53794737,1.600222349
5.120062941,-9.556841156,5.187916205,-5.346139747,13.76610716,6.233850821,9.679794112,-2.620505515,12.96869307,-7.647502337,-2.034415131,-3.866110113,-13.79483354,-0.408083322,-6.390405688,-9.177504358,7.179970811,1.189167629,3.132873266,12.18985848,-2.245299282,-12.97707626,-52.81816173,3.473186611,6.54120794,-15.41141562,24.19403281,14.43349292,6.581237086,-11.9074116,20.94705526,3.383198282
6.550077114,-0.323460656,3.017991804,-0.083454128,-1.270889025,4.860070433,2.10568928,-1.409396864,-2.358790357,-2.94986883,-4.652843569,-11.13373333,-6.557242239,-0.820169966,-2.547122655,-3.446626192,7.714528058,5.785507127,4.027917832,5.256839373,3.168899271,-1.894071699,-7.376026493,5.415566046,3.636329566,-14.20381751,5.278163159,5.425334539,0.939130817,-4.268718298,2.734927371,-0.620739983
-1.262873037,-9.371899956,-1.365169552,-10.62706538,-2.038390764,3.901116132,4.462339209,-23.27771331,1.48570136,3.441447637,-3.751555627,-9.05527599,-4.072161703,3.324074772,-1.476337483,0.68843811,0.867357376,-3.073168849,2.22612977,3.760832684,-1.712725348,-5.085129676,-17.20052046,5.144871519,11.24588333,17.72199415,16.37890472,11.12794823,6.421635453,-5.983289621,7.376827376,-0.222225058
-7.50417118,-15.74198445,0.467504588,-8.98648975,10.55289159,4.584248689,13.5211992,-17.93505805,19.96561547,3.017096546,4.53523151,7.417376653,-9.051401449,1.320994825,-5.000193698,-1.198983678,-3.069084434,-7.440257354,-1.927254195,5.919444372,-9.421962589,-17.46867494,-60.31146121,4.678596491,10.34980312,-4.284755272,34.01779776,20.34229968,12.37020252,-8.386107928,23.44573803,1.221799129
-3.636472158,-3.487478333,3.379593123,9.395622044,14.01401675,0.599366181,10.40071577,18.51376321,19.42446016,-3.813632015,9.230206969,9.182587344,-10.48920294,-0.348060563,-4.173383269,-4.746548515,1.259584028,1.964390368,-5.695864863,3.935333457,-5.166512223,-12.96741932,-54.73005909,-0.168155542,-5.18896778,-40.712914,17.88310596,12.15673707,5.790646458,-2.103188204,19.2306295,1.067100415
-4.969051549,-3.599556303,2.05937546,6.818189144,13.81812264,-2.83820713,5.931913384,24.11008732,13.0009734,-6.820483614,5.463846606,1.483866161,-8.345210821,4.031468732,-2.109664848,-5.988855402,0.603269121,-1.321449448,-6.55886204,1.719734013,-4.491286109,-11.34148927,-46.17459472,-4.774966033,-5.769056505,-8.26326717,12.06708902,7.916212769,3.775350746,-2.214207638,18.91103691,3.86967318
-10.6854277,-11.05085698,-0.463047488,-4.385250061,6.910748612,-2.028417829,2.688130089,-5.350837472,11.84009603,-5.642401988,3.825321059,2.610102307,-5.541240647,7.289613145,1.399846243,-4.973469347,-2.447739437,-7.258044485,-6.201781419,3.86418177,-6.825337516,-14.51424801,-53.45635593,-1.926765338,2.146868946,12.74835627,23.22295034,13.75166206,9.27350909,1.012829899,29.92507213,10.24193365
-8.310326051,-4.697670576,-3.40296233,-3.691337318,-7.5148307,-2.059661635,-4.164077542,-22.15633539,4.572658358,-1.239105656,7.35846148,3.035625057,4.708847917,10.03054507,10.30403989,2.550408303,-1.640207808,-1.813445856,-4.600831495,2.376361045,-6.327360253,-8.044835495,-23.27652032,2.834972169,-1.638860418,-20.94881789,9.391774661,9.754489023,8.737640616,10.40884273,23.53513401,15.9273864
-6.544371762,-3.141656963,-4.966689267,-6.13038108,-5.463804924,-1.654677979,-1.294447151,-6.021036011,1.391573444,4.787585593,7.053337968,-0.256907356,12.11768489,9.674912192,9.128811375,9.61182536,-5.468889819,-5.186593192,-2.162072861,-3.795650959,-11.39528288,-5.986379045,6.307563225,2.032864263,-2.759492348,-11.90793834,-4.355582345,1.98980302,3.923025327,4.908664862,5.706271216,9.857931549
-5.020300564,1.885122576,0.176484542,2.204239162,2.736745374,0.687695716,2.075925509,18.72535585,-2.939670003,3.077795692,0.906243939,-9.290683931,3.917881459,-0.67151553,-1.087710268,4.310086457,-5.019842431,-2.885839236,-1.136942861,-3.905890494,-4.430443014,3.587177358,13.8790814,-1.383524941,-4.13152271,23.44764139,-8.80205129,-4.789223299,-6.010139678,-2.433767532,-11.58182667,-6.096581969
4.581253505,20.11925791,6.924714487,19.43571854,-0.614051747,2.594380793,-3.097269726,24.83221295,-14.80315156,0.984618669,-3.11349264,-16.04977318,-1.448843745,-11.75533146,-2.586493609,-1.131687365,4.656881655,12.5084341,2.60583611,-1.778702222,12.20438328,22.75413639,45.10581252,-1.484941641,-13.14600748,5.797125807,-31.13401922,-16.78244468,-19.23610242,0.332140304,-32.61958783,-14.65500649
8.80135822,18.32783358,6.666137298,10.60772067,2.300886781,5.036590735,0.803266462,22.08533439,-10.68061083,7.638322461,-3.278098459,-1.949945693,4.471305611,-12.89173198,-4.299251297,1.859796695,4.080480044,7.178057261,9.480986359,-5.057758461,6.911354495,17.01729219,67.08852,0.538369781,-8.153969869,-7.249021762,-38.20778365,-20.76086038,-20.74067678,-6.230978054,-43.05679189,-18.33613391
